PE IR       SUBTECH     SPECTRUM    ASCII       PEDS        4.00        
   -1
BH-1(1)55-56_1.asc
24/05/14
11:18:36.00
24/05/14
11:19:09.00
Administrator
?品 007 用? Administrator 日期 Tuesday, May 14 2024
550.000000
#HDR
-1
-1
#GR
cm-1
%T
1.0
0.0
4000.000000
-1.000000
3451
8
100.108592
72.176596
#DATA
4000.000000	99.948947
3999.000000	99.948722
3998.000000	99.948480
3997.000000	99.948213
3996.000000	99.947926
3995.000000	99.947631
3994.000000	99.947338
3993.000000	99.947057
3992.000000	99.946789
3991.000000	99.946537
3990.000000	99.946296
3989.000000	99.946060
3988.000000	99.945824
3987.000000	99.945585
3986.000000	99.945344
3985.000000	99.945098
3984.000000	99.944846
3983.000000	99.944586
3982.000000	99.944319
3981.000000	99.944052
3980.000000	99.943792
3979.000000	99.943549
3978.000000	99.943328
3977.000000	99.943132
3976.000000	99.942959
3975.000000	99.942802
3974.000000	99.942654
3973.000000	99.942507
3972.000000	99.942359
3971.000000	99.942209
3970.000000	99.942061
3969.000000	99.941914
3968.000000	99.941769
3967.000000	99.941624
3966.000000	99.941480
3965.000000	99.941337
3964.000000	99.941198
3963.000000	99.941063
3962.000000	99.940934
3961.000000	99.940805
3960.000000	99.940667
3959.000000	99.940507
3958.000000	99.940318
3957.000000	99.940103
3956.000000	99.939876
3955.000000	99.939656
3954.000000	99.939455
3953.000000	99.939274
3952.000000	99.939103
3951.000000	99.938932
3950.000000	99.938755
3949.000000	99.938568
3948.000000	99.938367
3947.000000	99.938157
3946.000000	99.937950
3945.000000	99.937770
3944.000000	99.937628
3943.000000	99.937511
3942.000000	99.937388
3941.000000	99.937258
3940.000000	99.937165
3939.000000	99.937175
3938.000000	99.937320
3937.000000	99.937563
3936.000000	99.937811
3935.000000	99.937959
3934.000000	99.937946
3933.000000	99.937830
3932.000000	99.937793
3931.000000	99.937947
3930.000000	99.938106
3929.000000	99.937925
3928.000000	99.937331
3927.000000	99.936706
3926.000000	99.936483
3925.000000	99.936559
3924.000000	99.936284
3923.000000	99.935159
3922.000000	99.933432
3921.000000	99.931956
3920.000000	99.931437
3919.000000	99.931864
3918.000000	99.932642
3917.000000	99.933209
3916.000000	99.933440
3915.000000	99.933531
3914.000000	99.933730
3913.000000	99.934164
3912.000000	99.934740
3911.000000	99.935173
3910.000000	99.935262
3909.000000	99.935208
3908.000000	99.935591
3907.000000	99.936894
3906.000000	99.938957
3905.000000	99.940899
3904.000000	99.941818
3903.000000	99.941664
3902.000000	99.941252
3901.000000	99.941477
3900.000000	99.942508
3899.000000	99.943685
3898.000000	99.944105
3897.000000	99.943349
3896.000000	99.941667
3895.000000	99.939775
3894.000000	99.938464
3893.000000	99.938206
3892.000000	99.938953
3891.000000	99.940193
3890.000000	99.941299
3889.000000	99.941919
3888.000000	99.942067
3887.000000	99.941988
3886.000000	99.942039
3885.000000	99.942540
3884.000000	99.943513
3883.000000	99.944624
3882.000000	99.945462
3881.000000	99.945852
3880.000000	99.945938
3879.000000	99.946012
3878.000000	99.946291
3877.000000	99.946876
3876.000000	99.947720
3875.000000	99.948535
3874.000000	99.948939
3873.000000	99.948779
3872.000000	99.948240
3871.000000	99.947743
3870.000000	99.947614
3869.000000	99.947789
3868.000000	99.947968
3867.000000	99.948026
3866.000000	99.948140
3865.000000	99.948494
3864.000000	99.949001
3863.000000	99.949365
3862.000000	99.949390
3861.000000	99.949125
3860.000000	99.948758
3859.000000	99.948426
3858.000000	99.948163
3857.000000	99.947979
3856.000000	99.947920
3855.000000	99.948037
3854.000000	99.948277
3853.000000	99.948504
3852.000000	99.948632
3851.000000	99.948564
3850.000000	99.948235
3849.000000	99.947760
3848.000000	99.947346
3847.000000	99.947161
3846.000000	99.947260
3845.000000	99.947536
3844.000000	99.947793
3843.000000	99.947892
3842.000000	99.947807
3841.000000	99.947623
3840.000000	99.947513
3839.000000	99.947653
3838.000000	99.948038
3837.000000	99.948337
3836.000000	99.948161
3835.000000	99.947440
3834.000000	99.946444
3833.000000	99.945583
3832.000000	99.945074
3831.000000	99.944882
3830.000000	99.944844
3829.000000	99.944812
3828.000000	99.944746
3827.000000	99.944677
3826.000000	99.944617
3825.000000	99.944504
3824.000000	99.944241
3823.000000	99.943774
3822.000000	99.943151
3821.000000	99.942522
3820.000000	99.942027
3819.000000	99.941656
3818.000000	99.941308
3817.000000	99.940976
3816.000000	99.940769
3815.000000	99.940782
3814.000000	99.940978
3813.000000	99.941211
3812.000000	99.941332
3811.000000	99.941248
3810.000000	99.940917
3809.000000	99.940364
3808.000000	99.939717
3807.000000	99.939223
3806.000000	99.939059
3805.000000	99.939187
3804.000000	99.939357
3803.000000	99.939285
3802.000000	99.938851
3801.000000	99.938217
3800.000000	99.937705
3799.000000	99.937470
3798.000000	99.937502
3797.000000	99.937723
3796.000000	99.937990
3795.000000	99.938150
3794.000000	99.938170
3793.000000	99.938166
3792.000000	99.938307
3791.000000	99.938663
3790.000000	99.939142
3789.000000	99.939532
3788.000000	99.939610
3787.000000	99.939216
3786.000000	99.938384
3785.000000	99.937445
3784.000000	99.936827
3783.000000	99.936626
3782.000000	99.936435
3781.000000	99.935779
3780.000000	99.934770
3779.000000	99.934188
3778.000000	99.934674
3777.000000	99.936037
3776.000000	99.937570
3775.000000	99.938849
3774.000000	99.939982
3773.000000	99.941202
3772.000000	99.942255
3771.000000	99.942260
3770.000000	99.940486
3769.000000	99.937408
3768.000000	99.934644
3767.000000	99.933698
3766.000000	99.934977
3765.000000	99.937805
3764.000000	99.941110
3763.000000	99.944007
3762.000000	99.945842
3761.000000	99.946091
3760.000000	99.944767
3759.000000	99.942905
3758.000000	99.941709
3757.000000	99.941103
3756.000000	99.939983
3755.000000	99.937855
3754.000000	99.935686
3753.000000	99.935221
3752.000000	99.937349
3751.000000	99.940988
3750.000000	99.944139
3749.000000	99.946012
3748.000000	99.947680
3747.000000	99.950825
3746.000000	99.955210
3745.000000	99.957536
3744.000000	99.954493
3743.000000	99.946793
3742.000000	99.938174
3741.000000	99.931675
3740.000000	99.928271
3739.000000	99.927510
3738.000000	99.928104
3737.000000	99.928595
3736.000000	99.928688
3735.000000	99.929430
3734.000000	99.931156
3733.000000	99.932273
3732.000000	99.931201
3731.000000	99.928037
3730.000000	99.923520
3729.000000	99.917599
3728.000000	99.909922
3727.000000	99.901548
3726.000000	99.895274
3725.000000	99.893413
3724.000000	99.895417
3723.000000	99.898136
3722.000000	99.898232
3721.000000	99.894067
3720.000000	99.885857
3719.000000	99.875034
3718.000000	99.863836
3717.000000	99.854804
3716.000000	99.849673
3715.000000	99.848388
3714.000000	99.848931
3713.000000	99.848338
3712.000000	99.844768
3711.000000	99.838728
3710.000000	99.831678
3709.000000	99.823997
3708.000000	99.815519
3707.000000	99.806539
3706.000000	99.797228
3705.000000	99.787144
3704.000000	99.775682
3703.000000	99.762936
3702.000000	99.750121
3701.000000	99.739133
3700.000000	99.731255
3699.000000	99.726401
3698.000000	99.723300
3697.000000	99.720055
3696.000000	99.715180
3695.000000	99.708870
3694.000000	99.703266
3693.000000	99.701304
3692.000000	99.704833
3691.000000	99.712654
3690.000000	99.719992
3689.000000	99.721404
3688.000000	99.715611
3687.000000	99.706170
3686.000000	99.697950
3685.000000	99.693478
3684.000000	99.691645
3683.000000	99.689176
3682.000000	99.682787
3681.000000	99.671104
3680.000000	99.655318
3679.000000	99.638040
3678.000000	99.621535
3677.000000	99.607490
3676.000000	99.597807
3675.000000	99.593561
3674.000000	99.592355
3673.000000	99.589218
3672.000000	99.581031
3671.000000	99.567579
3670.000000	99.550735
3669.000000	99.533513
3668.000000	99.516713
3667.000000	99.498519
3666.000000	99.478043
3665.000000	99.456368
3664.000000	99.435491
3663.000000	99.417223
3662.000000	99.401685
3661.000000	99.386615
3660.000000	99.368735
3659.000000	99.346281
3658.000000	99.320902
3657.000000	99.297469
3656.000000	99.280700
3655.000000	99.271000
3654.000000	99.264508
3653.000000	99.256937
3652.000000	99.246322
3651.000000	99.233383
3650.000000	99.220384
3649.000000	99.208780
3648.000000	99.197045
3647.000000	99.181685
3646.000000	99.161565
3645.000000	99.139356
3644.000000	99.118947
3643.000000	99.103410
3642.000000	99.093833
3641.000000	99.087958
3640.000000	99.080615
3639.000000	99.067309
3638.000000	99.047717
3637.000000	99.025108
3636.000000	99.002651
3635.000000	98.981330
3634.000000	98.961107
3633.000000	98.942316
3632.000000	98.925113
3631.000000	98.908864
3630.000000	98.893550
3629.000000	98.881474
3628.000000	98.874779
3627.000000	98.870511
3626.000000	98.863189
3625.000000	98.851702
3624.000000	98.839044
3623.000000	98.828724
3622.000000	98.822809
3621.000000	98.821815
3620.000000	98.826286
3619.000000	98.837487
3618.000000	98.855326
3617.000000	98.876476
3616.000000	98.896582
3615.000000	98.913674
3614.000000	98.928716
3613.000000	98.943785
3612.000000	98.959300
3611.000000	98.973346
3610.000000	98.984504
3609.000000	98.994417
3608.000000	99.006510
3607.000000	99.022194
3606.000000	99.039487
3605.000000	99.055889
3604.000000	99.071063
3603.000000	99.085934
3602.000000	99.100548
3601.000000	99.113777
3600.000000	99.124535
3599.000000	99.132670
3598.000000	99.138789
3597.000000	99.143781
3596.000000	99.148660
3595.000000	99.154494
3594.000000	99.161847
3593.000000	99.169990
3592.000000	99.177167
3591.000000	99.182181
3590.000000	99.185983
3589.000000	99.191571
3588.000000	99.201160
3587.000000	99.212169
3586.000000	99.218078
3585.000000	99.215475
3584.000000	99.208769
3583.000000	99.205499
3582.000000	99.207665
3581.000000	99.210045
3580.000000	99.206849
3579.000000	99.198514
3578.000000	99.190623
3577.000000	99.186944
3576.000000	99.185611
3575.000000	99.182837
3574.000000	99.178499
3573.000000	99.176231
3572.000000	99.178668
3571.000000	99.184279
3570.000000	99.189242
3569.000000	99.191440
3568.000000	99.192330
3567.000000	99.194682
3566.000000	99.198663
3565.000000	99.201451
3564.000000	99.201207
3563.000000	99.199145
3562.000000	99.197209
3561.000000	99.195875
3560.000000	99.194406
3559.000000	99.191993
3558.000000	99.188331
3557.000000	99.183552
3556.000000	99.178085
3555.000000	99.172727
3554.000000	99.168686
3553.000000	99.166991
3552.000000	99.167463
3551.000000	99.168435
3550.000000	99.167961
3549.000000	99.165330
3548.000000	99.161225
3547.000000	99.156711
3546.000000	99.152323
3545.000000	99.147958
3544.000000	99.143502
3543.000000	99.139591
3542.000000	99.137552
3541.000000	99.138403
3540.000000	99.141880
3539.000000	99.146214
3538.000000	99.149139
3537.000000	99.149457
3536.000000	99.147683
3535.000000	99.145372
3534.000000	99.143906
3533.000000	99.143752
3532.000000	99.144471
3531.000000	99.145104
3530.000000	99.144720
3529.000000	99.142902
3528.000000	99.139852
3527.000000	99.136144
3526.000000	99.132505
3525.000000	99.129705
3524.000000	99.128301
3523.000000	99.128239
3522.000000	99.128872
3521.000000	99.129463
3520.000000	99.129615
3519.000000	99.129211
3518.000000	99.128239
3517.000000	99.126855
3516.000000	99.125424
3515.000000	99.124245
3514.000000	99.123324
3513.000000	99.122553
3512.000000	99.121966
3511.000000	99.121526
3510.000000	99.120804
3509.000000	99.119279
3508.000000	99.117041
3507.000000	99.114861
3506.000000	99.113438
3505.000000	99.112776
3504.000000	99.112475
3503.000000	99.112375
3502.000000	99.112556
3501.000000	99.112794
3500.000000	99.112452
3499.000000	99.111063
3498.000000	99.108818
3497.000000	99.106433
3496.000000	99.104508
3495.000000	99.102946
3494.000000	99.101044
3493.000000	99.098160
3492.000000	99.094365
3491.000000	99.090567
3490.000000	99.087872
3489.000000	99.086637
3488.000000	99.086222
3487.000000	99.085679
3486.000000	99.084762
3485.000000	99.084000
3484.000000	99.083758
3483.000000	99.083492
3482.000000	99.082197
3481.000000	99.079578
3480.000000	99.076428
3479.000000	99.073811
3478.000000	99.071923
3477.000000	99.070082
3476.000000	99.067661
3475.000000	99.064785
3474.000000	99.062117
3473.000000	99.060103
3472.000000	99.058666
3471.000000	99.057496
3470.000000	99.056375
3469.000000	99.055080
3468.000000	99.053218
3467.000000	99.050485
3466.000000	99.047130
3465.000000	99.043970
3464.000000	99.041736
3463.000000	99.040397
3462.000000	99.039128
3461.000000	99.036963
3460.000000	99.033570
3459.000000	99.029508
3458.000000	99.025810
3457.000000	99.023131
3456.000000	99.021216
3455.000000	99.019232
3454.000000	99.016687
3453.000000	99.013867
3452.000000	99.011261
3451.000000	99.008851
3450.000000	99.006328
3449.000000	99.003872
3448.000000	99.002197
3447.000000	99.001667
3446.000000	99.001803
3445.000000	99.001986
3444.000000	99.002208
3443.000000	99.002610
3442.000000	99.002557
3441.000000	99.000759
3440.000000	98.996354
3439.000000	98.989542
3438.000000	98.981482
3437.000000	98.973839
3436.000000	98.968236
3435.000000	98.965509
3434.000000	98.965034
3433.000000	98.965012
3432.000000	98.963963
3431.000000	98.961960
3430.000000	98.960139
3429.000000	98.959270
3428.000000	98.959103
3427.000000	98.958946
3426.000000	98.958444
3425.000000	98.957677
3424.000000	98.956795
3423.000000	98.955809
3422.000000	98.954694
3421.000000	98.953594
3420.000000	98.952882
3419.000000	98.952891
3418.000000	98.953432
3417.000000	98.953592
3416.000000	98.952284
3415.000000	98.949146
3414.000000	98.944927
3413.000000	98.940848
3412.000000	98.937618
3411.000000	98.935306
3410.000000	98.933761
3409.000000	98.932772
3408.000000	98.931956
3407.000000	98.930941
3406.000000	98.929787
3405.000000	98.928812
3404.000000	98.927862
3403.000000	98.926285
3402.000000	98.923980
3401.000000	98.921979
3400.000000	98.921346
3399.000000	98.921795
3398.000000	98.922067
3397.000000	98.921614
3396.000000	98.921267
3395.000000	98.921941
3394.000000	98.923336
3393.000000	98.924329
3392.000000	98.924411
3391.000000	98.924235
3390.000000	98.924684
3389.000000	98.925813
3388.000000	98.926895
3387.000000	98.927332
3386.000000	98.927316
3385.000000	98.927513
3384.000000	98.928261
3383.000000	98.929261
3382.000000	98.930041
3381.000000	98.930488
3380.000000	98.930782
3379.000000	98.931029
3378.000000	98.931204
3377.000000	98.931423
3376.000000	98.931995
3375.000000	98.933087
3374.000000	98.934478
3373.000000	98.935698
3372.000000	98.936449
3371.000000	98.936813
3370.000000	98.937139
3369.000000	98.937791
3368.000000	98.938876
3367.000000	98.940237
3366.000000	98.941572
3365.000000	98.942658
3364.000000	98.943477
3363.000000	98.944170
3362.000000	98.944918
3361.000000	98.945814
3360.000000	98.946826
3359.000000	98.947827
3358.000000	98.948684
3357.000000	98.949375
3356.000000	98.950068
3355.000000	98.951035
3354.000000	98.952412
3353.000000	98.954099
3352.000000	98.955863
3351.000000	98.957514
3350.000000	98.958975
3349.000000	98.960235
3348.000000	98.961332
3347.000000	98.962360
3346.000000	98.963451
3345.000000	98.964705
3344.000000	98.966122
3343.000000	98.967603
3342.000000	98.969051
3341.000000	98.970467
3340.000000	98.971906
3339.000000	98.973363
3338.000000	98.974745
3337.000000	98.976003
3336.000000	98.977233
3335.000000	98.978583
3334.000000	98.980069
3333.000000	98.981555
3332.000000	98.982936
3331.000000	98.984269
3330.000000	98.985689
3329.000000	98.987231
3328.000000	98.988773
3327.000000	98.990098
3326.000000	98.991022
3325.000000	98.991546
3324.000000	98.991952
3323.000000	98.992701
3322.000000	98.994113
3321.000000	98.996134
3320.000000	98.998399
3319.000000	99.000539
3318.000000	99.002422
3317.000000	99.004087
3316.000000	99.005571
3315.000000	99.006878
3314.000000	99.008075
3313.000000	99.009297
3312.000000	99.010630
3311.000000	99.012033
3310.000000	99.013390
3309.000000	99.014632
3308.000000	99.015817
3307.000000	99.017080
3306.000000	99.018514
3305.000000	99.020100
3304.000000	99.021736
3303.000000	99.023297
3302.000000	99.024725
3301.000000	99.026073
3300.000000	99.027450
3299.000000	99.028906
3298.000000	99.030405
3297.000000	99.031884
3296.000000	99.033333
3295.000000	99.034797
3294.000000	99.036325
3293.000000	99.037926
3292.000000	99.039577
3291.000000	99.041236
3290.000000	99.042865
3289.000000	99.044447
3288.000000	99.045998
3287.000000	99.047558
3286.000000	99.049150
3285.000000	99.050757
3284.000000	99.052351
3283.000000	99.053934
3282.000000	99.055552
3281.000000	99.057245
3280.000000	99.059024
3279.000000	99.060861
3278.000000	99.062703
3277.000000	99.064499
3276.000000	99.066243
3275.000000	99.067970
3274.000000	99.069696
3273.000000	99.071400
3272.000000	99.073094
3271.000000	99.074861
3270.000000	99.076765
3269.000000	99.078794
3268.000000	99.080937
3267.000000	99.083245
3266.000000	99.085728
3265.000000	99.088197
3264.000000	99.090365
3263.000000	99.092106
3262.000000	99.093556
3261.000000	99.095026
3260.000000	99.096786
3259.000000	99.098936
3258.000000	99.101390
3257.000000	99.103890
3256.000000	99.106174
3255.000000	99.108159
3254.000000	99.109926
3253.000000	99.111578
3252.000000	99.113178
3251.000000	99.114852
3250.000000	99.116788
3249.000000	99.119045
3248.000000	99.121460
3247.000000	99.123818
3246.000000	99.126037
3245.000000	99.128152
3244.000000	99.130255
3243.000000	99.132545
3242.000000	99.135255
3241.000000	99.138394
3240.000000	99.141610
3239.000000	99.144440
3238.000000	99.146723
3237.000000	99.148662
3236.000000	99.150546
3235.000000	99.152479
3234.000000	99.154443
3233.000000	99.156459
3232.000000	99.158581
3231.000000	99.160822
3230.000000	99.163164
3229.000000	99.165593
3228.000000	99.168058
3227.000000	99.170419
3226.000000	99.172536
3225.000000	99.174409
3224.000000	99.176220
3223.000000	99.178230
3222.000000	99.180586
3221.000000	99.183253
3220.000000	99.186055
3219.000000	99.188782
3218.000000	99.191318
3217.000000	99.193657
3216.000000	99.195869
3215.000000	99.198043
3214.000000	99.200251
3213.000000	99.202564
3212.000000	99.205033
3211.000000	99.207628
3210.000000	99.210242
3209.000000	99.212769
3208.000000	99.215188
3207.000000	99.217569
3206.000000	99.219993
3205.000000	99.222488
3204.000000	99.225027
3203.000000	99.227566
3202.000000	99.230078
3201.000000	99.232531
3200.000000	99.234879
3199.000000	99.237095
3198.000000	99.239254
3197.000000	99.241539
3196.000000	99.244102
3195.000000	99.246931
3194.000000	99.249867
3193.000000	99.252749
3192.000000	99.255512
3191.000000	99.258175
3190.000000	99.260787
3189.000000	99.263405
3188.000000	99.266079
3187.000000	99.268835
3186.000000	99.271628
3185.000000	99.274350
3184.000000	99.276888
3183.000000	99.279231
3182.000000	99.281529
3181.000000	99.284028
3180.000000	99.286885
3179.000000	99.290046
3178.000000	99.293239
3177.000000	99.296205
3176.000000	99.298901
3175.000000	99.301422
3174.000000	99.303773
3173.000000	99.305850
3172.000000	99.307668
3171.000000	99.309540
3170.000000	99.311856
3169.000000	99.314729
3168.000000	99.317903
3167.000000	99.320979
3166.000000	99.323765
3165.000000	99.326339
3164.000000	99.328884
3163.000000	99.331539
3162.000000	99.334322
3161.000000	99.337113
3160.000000	99.339708
3159.000000	99.341963
3158.000000	99.343911
3157.000000	99.345724
3156.000000	99.347553
3155.000000	99.349475
3154.000000	99.351561
3153.000000	99.353855
3152.000000	99.356260
3151.000000	99.358563
3150.000000	99.360680
3149.000000	99.362805
3148.000000	99.365209
3147.000000	99.367882
3146.000000	99.370453
3145.000000	99.372500
3144.000000	99.373908
3143.000000	99.374947
3142.000000	99.376088
3141.000000	99.377704
3140.000000	99.379885
3139.000000	99.382436
3138.000000	99.385085
3137.000000	99.387723
3136.000000	99.390456
3135.000000	99.393420
3134.000000	99.396572
3133.000000	99.399609
3132.000000	99.402087
3131.000000	99.403697
3130.000000	99.404527
3129.000000	99.405091
3128.000000	99.405992
3127.000000	99.407517
3126.000000	99.409549
3125.000000	99.411734
3124.000000	99.413678
3123.000000	99.415086
3122.000000	99.415959
3121.000000	99.416749
3120.000000	99.418128
3119.000000	99.420458
3118.000000	99.423553
3117.000000	99.426869
3116.000000	99.429886
3115.000000	99.432344
3114.000000	99.434265
3113.000000	99.435936
3112.000000	99.437776
3111.000000	99.440021
3110.000000	99.442519
3109.000000	99.444903
3108.000000	99.446956
3107.000000	99.448761
3106.000000	99.450489
3105.000000	99.452186
3104.000000	99.453818
3103.000000	99.455416
3102.000000	99.457119
3101.000000	99.459055
3100.000000	99.461212
3099.000000	99.463420
3098.000000	99.465436
3097.000000	99.467132
3096.000000	99.468572
3095.000000	99.469963
3094.000000	99.471496
3093.000000	99.473227
3092.000000	99.475101
3091.000000	99.477015
3090.000000	99.478881
3089.000000	99.480662
3088.000000	99.482398
3087.000000	99.484177
3086.000000	99.486066
3085.000000	99.488035
3084.000000	99.489957
3083.000000	99.491717
3082.000000	99.493298
3081.000000	99.494784
3080.000000	99.496296
3079.000000	99.497919
3078.000000	99.499664
3077.000000	99.501451
3076.000000	99.503125
3075.000000	99.504567
3074.000000	99.505789
3073.000000	99.506959
3072.000000	99.508257
3071.000000	99.509708
3070.000000	99.511182
3069.000000	99.512537
3068.000000	99.513794
3067.000000	99.515167
3066.000000	99.516904
3065.000000	99.519061
3064.000000	99.521344
3063.000000	99.523305
3062.000000	99.524772
3061.000000	99.526014
3060.000000	99.527416
3059.000000	99.528984
3058.000000	99.530384
3057.000000	99.531379
3056.000000	99.532044
3055.000000	99.532626
3054.000000	99.533377
3053.000000	99.534458
3052.000000	99.535817
3051.000000	99.537171
3050.000000	99.538265
3049.000000	99.539201
3048.000000	99.540390
3047.000000	99.542139
3046.000000	99.544385
3045.000000	99.546734
3044.000000	99.548692
3043.000000	99.549946
3042.000000	99.550583
3041.000000	99.551089
3040.000000	99.551899
3039.000000	99.552929
3038.000000	99.553776
3037.000000	99.554355
3036.000000	99.555049
3035.000000	99.556159
3034.000000	99.557500
3033.000000	99.558664
3032.000000	99.559511
3031.000000	99.560246
3030.000000	99.561193
3029.000000	99.562603
3028.000000	99.564531
3027.000000	99.566739
3026.000000	99.568798
3025.000000	99.570446
3024.000000	99.571788
3023.000000	99.573034
3022.000000	99.574184
3021.000000	99.575119
3020.000000	99.575924
3019.000000	99.576891
3018.000000	99.578182
3017.000000	99.579675
3016.000000	99.581142
3015.000000	99.582493
3014.000000	99.583796
3013.000000	99.585112
3012.000000	99.586397
3011.000000	99.587559
3010.000000	99.588586
3009.000000	99.589586
3008.000000	99.590721
3007.000000	99.592111
3006.000000	99.593764
3005.000000	99.595561
3004.000000	99.597297
3003.000000	99.598797
3002.000000	99.600024
3001.000000	99.601058
3000.000000	99.602050
2999.000000	99.603155
2998.000000	99.604461
2997.000000	99.605962
2996.000000	99.607520
2995.000000	99.608918
2994.000000	99.610032
2993.000000	99.610939
2992.000000	99.611873
2991.000000	99.613010
2990.000000	99.614351
2989.000000	99.615776
2988.000000	99.617152
2987.000000	99.618375
2986.000000	99.619368
2985.000000	99.620123
2984.000000	99.620739
2983.000000	99.621351
2982.000000	99.622034
2981.000000	99.622806
2980.000000	99.623667
2979.000000	99.624602
2978.000000	99.625581
2977.000000	99.626599
2976.000000	99.627698
2975.000000	99.628883
2974.000000	99.630059
2973.000000	99.631087
2972.000000	99.631861
2971.000000	99.632283
2970.000000	99.632245
2969.000000	99.631804
2968.000000	99.631338
2967.000000	99.631344
2966.000000	99.632010
2965.000000	99.633020
2964.000000	99.633771
2963.000000	99.633908
2962.000000	99.633660
2961.000000	99.633626
2960.000000	99.634140
2959.000000	99.634863
2958.000000	99.635126
2957.000000	99.634652
2956.000000	99.633824
2955.000000	99.633295
2954.000000	99.633425
2953.000000	99.634178
2952.000000	99.635316
2951.000000	99.636498
2950.000000	99.637376
2949.000000	99.637823
2948.000000	99.638055
2947.000000	99.638429
2946.000000	99.639112
2945.000000	99.640031
2944.000000	99.641003
2943.000000	99.641755
2942.000000	99.641942
2941.000000	99.641390
2940.000000	99.640373
2939.000000	99.639564
2938.000000	99.639529
2937.000000	99.640311
2936.000000	99.641463
2935.000000	99.642414
2934.000000	99.642879
2933.000000	99.643016
2932.000000	99.643254
2931.000000	99.643958
2930.000000	99.645218
2929.000000	99.646866
2928.000000	99.648551
2927.000000	99.649848
2926.000000	99.650526
2925.000000	99.650824
2924.000000	99.651327
2923.000000	99.652350
2922.000000	99.653631
2921.000000	99.654788
2920.000000	99.655869
2919.000000	99.657196
2918.000000	99.658817
2917.000000	99.660416
2916.000000	99.661699
2915.000000	99.662619
2914.000000	99.663261
2913.000000	99.663804
2912.000000	99.664547
2911.000000	99.665727
2910.000000	99.667250
2909.000000	99.668773
2908.000000	99.670120
2907.000000	99.671484
2906.000000	99.673087
2905.000000	99.674793
2904.000000	99.676204
2903.000000	99.677129
2902.000000	99.677761
2901.000000	99.678475
2900.000000	99.679486
2899.000000	99.680749
2898.000000	99.682070
2897.000000	99.683260
2896.000000	99.684250
2895.000000	99.685096
2894.000000	99.685917
2893.000000	99.686813
2892.000000	99.687816
2891.000000	99.688887
2890.000000	99.689956
2889.000000	99.690981
2888.000000	99.691966
2887.000000	99.692930
2886.000000	99.693885
2885.000000	99.694830
2884.000000	99.695754
2883.000000	99.696632
2882.000000	99.697430
2881.000000	99.698145
2880.000000	99.698836
2879.000000	99.699592
2878.000000	99.700453
2877.000000	99.701375
2876.000000	99.702254
2875.000000	99.703024
2874.000000	99.703691
2873.000000	99.704311
2872.000000	99.704963
2871.000000	99.705731
2870.000000	99.706671
2869.000000	99.707763
2868.000000	99.708909
2867.000000	99.710002
2866.000000	99.710930
2865.000000	99.711581
2864.000000	99.711964
2863.000000	99.712307
2862.000000	99.712886
2861.000000	99.713718
2860.000000	99.714546
2859.000000	99.715191
2858.000000	99.715788
2857.000000	99.716555
2856.000000	99.717419
2855.000000	99.718097
2854.000000	99.718529
2853.000000	99.719022
2852.000000	99.719842
2851.000000	99.720808
2850.000000	99.721458
2849.000000	99.721611
2848.000000	99.721624
2847.000000	99.722026
2846.000000	99.722989
2845.000000	99.724222
2844.000000	99.725267
2843.000000	99.725893
2842.000000	99.726273
2841.000000	99.726886
2840.000000	99.728179
2839.000000	99.730225
2838.000000	99.732665
2837.000000	99.734974
2836.000000	99.736803
2835.000000	99.737995
2834.000000	99.738484
2833.000000	99.738411
2832.000000	99.738266
2831.000000	99.738625
2830.000000	99.739626
2829.000000	99.740878
2828.000000	99.741922
2827.000000	99.742709
2826.000000	99.743504
2825.000000	99.744434
2824.000000	99.745284
2823.000000	99.745783
2822.000000	99.745966
2821.000000	99.746203
2820.000000	99.746845
2819.000000	99.747881
2818.000000	99.748982
2817.000000	99.749921
2816.000000	99.750839
2815.000000	99.751990
2814.000000	99.753282
2813.000000	99.754266
2812.000000	99.754630
2811.000000	99.754523
2810.000000	99.754412
2809.000000	99.754674
2808.000000	99.755406
2807.000000	99.756540
2806.000000	99.757967
2805.000000	99.759554
2804.000000	99.761088
2803.000000	99.762264
2802.000000	99.762845
2801.000000	99.762845
2800.000000	99.762551
2799.000000	99.762256
2798.000000	99.762037
2797.000000	99.761933
2796.000000	99.762207
2795.000000	99.763180
2794.000000	99.764808
2793.000000	99.766562
2792.000000	99.767896
2791.000000	99.768725
2790.000000	99.769300
2789.000000	99.769816
2788.000000	99.770267
2787.000000	99.770668
2786.000000	99.771174
2785.000000	99.771875
2784.000000	99.772658
2783.000000	99.773373
2782.000000	99.774032
2781.000000	99.774726
2780.000000	99.775441
2779.000000	99.776127
2778.000000	99.776895
2777.000000	99.777941
2776.000000	99.779244
2775.000000	99.780485
2774.000000	99.781363
2773.000000	99.781947
2772.000000	99.782577
2771.000000	99.783459
2770.000000	99.784470
2769.000000	99.785400
2768.000000	99.786248
2767.000000	99.787164
2766.000000	99.788184
2765.000000	99.789167
2764.000000	99.789982
2763.000000	99.790641
2762.000000	99.791234
2761.000000	99.791835
2760.000000	99.792500
2759.000000	99.793264
2758.000000	99.794110
2757.000000	99.794974
2756.000000	99.795808
2755.000000	99.796620
2754.000000	99.797427
2753.000000	99.798205
2752.000000	99.798911
2751.000000	99.799544
2750.000000	99.800138
2749.000000	99.800725
2748.000000	99.801315
2747.000000	99.801905
2746.000000	99.802490
2745.000000	99.803063
2744.000000	99.803618
2743.000000	99.804156
2742.000000	99.804681
2741.000000	99.805200
2740.000000	99.805709
2739.000000	99.806198
2738.000000	99.806662
2737.000000	99.807105
2736.000000	99.807531
2735.000000	99.807944
2734.000000	99.808336
2733.000000	99.808704
2732.000000	99.809047
2731.000000	99.809373
2730.000000	99.809691
2729.000000	99.810004
2728.000000	99.810313
2727.000000	99.810621
2726.000000	99.810930
2725.000000	99.811239
2724.000000	99.811557
2723.000000	99.811884
2722.000000	99.812168
2721.000000	99.812339
2720.000000	99.812379
2719.000000	99.812383
2718.000000	99.812478
2717.000000	99.812692
2716.000000	99.812939
2715.000000	99.813217
2714.000000	99.813674
2713.000000	99.814385
2712.000000	99.815110
2711.000000	99.815453
2710.000000	99.815283
2709.000000	99.814928
2708.000000	99.814847
2707.000000	99.815182
2706.000000	99.815702
2705.000000	99.816053
2704.000000	99.816075
2703.000000	99.815976
2702.000000	99.816193
2701.000000	99.816867
2700.000000	99.817494
2699.000000	99.817365
2698.000000	99.816377
2697.000000	99.815123
2696.000000	99.814142
2695.000000	99.813417
2694.000000	99.812714
2693.000000	99.812165
2692.000000	99.812258
2691.000000	99.813426
2690.000000	99.815740
2689.000000	99.818763
2688.000000	99.821762
2687.000000	99.824272
2686.000000	99.826369
2685.000000	99.828098
2684.000000	99.828725
2683.000000	99.827212
2682.000000	99.823558
2681.000000	99.819308
2680.000000	99.816338
2679.000000	99.815272
2678.000000	99.815440
2677.000000	99.816101
2676.000000	99.817389
2675.000000	99.819938
2674.000000	99.823801
2673.000000	99.827879
2672.000000	99.830569
2671.000000	99.831046
2670.000000	99.829802
2669.000000	99.828044
2668.000000	99.826604
2667.000000	99.825525
2666.000000	99.824434
2665.000000	99.823016
2664.000000	99.821338
2663.000000	99.819990
2662.000000	99.819694
2661.000000	99.820417
2660.000000	99.821072
2659.000000	99.820564
2658.000000	99.818945
2657.000000	99.817088
2656.000000	99.815374
2655.000000	99.813410
2654.000000	99.811123
2653.000000	99.809393
2652.000000	99.809112
2651.000000	99.810143
2650.000000	99.811585
2649.000000	99.812874
2648.000000	99.814244
2647.000000	99.816043
2646.000000	99.817960
2645.000000	99.819151
2644.000000	99.819095
2643.000000	99.818218
2642.000000	99.817545
2641.000000	99.817617
2640.000000	99.817973
2639.000000	99.817878
2638.000000	99.817314
2637.000000	99.816905
2636.000000	99.817014
2635.000000	99.817350
2634.000000	99.817480
2633.000000	99.817367
2632.000000	99.817283
2631.000000	99.817408
2630.000000	99.817682
2629.000000	99.817966
2628.000000	99.818188
2627.000000	99.818370
2626.000000	99.818556
2625.000000	99.818768
2624.000000	99.819001
2623.000000	99.819249
2622.000000	99.819505
2621.000000	99.819768
2620.000000	99.820037
2619.000000	99.820315
2618.000000	99.820599
2617.000000	99.820886
2616.000000	99.821175
2615.000000	99.821467
2614.000000	99.821759
2613.000000	99.822050
2612.000000	99.822334
2611.000000	99.822605
2610.000000	99.822866
2609.000000	99.823125
2608.000000	99.823391
2607.000000	99.823664
2606.000000	99.823937
2605.000000	99.824198
2604.000000	99.824449
2603.000000	99.824698
2602.000000	99.824962
2601.000000	99.825252
2600.000000	99.825570
2599.000000	99.825914
2598.000000	99.826273
2597.000000	99.826643
2596.000000	99.827016
2595.000000	99.827389
2594.000000	99.827761
2593.000000	99.828136
2592.000000	99.828516
2591.000000	99.828902
2590.000000	99.829285
2589.000000	99.829655
2588.000000	99.830008
2587.000000	99.830345
2586.000000	99.830670
2585.000000	99.830992
2584.000000	99.831315
2583.000000	99.831643
2582.000000	99.831972
2581.000000	99.832302
2580.000000	99.832632
2579.000000	99.832964
2578.000000	99.833295
2577.000000	99.833624
2576.000000	99.833946
2575.000000	99.834263
2574.000000	99.834576
2573.000000	99.834882
2572.000000	99.835181
2571.000000	99.835472
2570.000000	99.835754
2569.000000	99.836027
2568.000000	99.836301
2567.000000	99.836577
2566.000000	99.836835
2565.000000	99.837047
2564.000000	99.837238
2563.000000	99.837473
2562.000000	99.837775
2561.000000	99.838068
2560.000000	99.838271
2559.000000	99.838401
2558.000000	99.838535
2557.000000	99.838707
2556.000000	99.838862
2555.000000	99.838934
2554.000000	99.838982
2553.000000	99.839172
2552.000000	99.839604
2551.000000	99.840188
2550.000000	99.840727
2549.000000	99.841119
2548.000000	99.841431
2547.000000	99.841732
2546.000000	99.841943
2545.000000	99.841942
2544.000000	99.841747
2543.000000	99.841532
2542.000000	99.841481
2541.000000	99.841691
2540.000000	99.842190
2539.000000	99.842925
2538.000000	99.843652
2537.000000	99.843979
2536.000000	99.843622
2535.000000	99.842631
2534.000000	99.841461
2533.000000	99.840707
2532.000000	99.840735
2531.000000	99.841467
2530.000000	99.842429
2529.000000	99.843121
2528.000000	99.843427
2527.000000	99.843641
2526.000000	99.844079
2525.000000	99.844703
2524.000000	99.845175
2523.000000	99.845309
2522.000000	99.845410
2521.000000	99.846031
2520.000000	99.847346
2519.000000	99.848859
2518.000000	99.849873
2517.000000	99.850233
2516.000000	99.850385
2515.000000	99.850691
2514.000000	99.850960
2513.000000	99.850831
2512.000000	99.850404
2511.000000	99.850198
2510.000000	99.850511
2509.000000	99.851085
2508.000000	99.851403
2507.000000	99.851175
2506.000000	99.850524
2505.000000	99.849866
2504.000000	99.849631
2503.000000	99.849986
2502.000000	99.850759
2501.000000	99.851675
2500.000000	99.852698
2499.000000	99.853994
2498.000000	99.855526
2497.000000	99.856809
2496.000000	99.857277
2495.000000	99.856810
2494.000000	99.855873
2493.000000	99.855151
2492.000000	99.854980
2491.000000	99.855189
2490.000000	99.855407
2489.000000	99.855463
2488.000000	99.855541
2487.000000	99.855922
2486.000000	99.856649
2485.000000	99.857477
2484.000000	99.858149
2483.000000	99.858653
2482.000000	99.859132
2481.000000	99.859629
2480.000000	99.860011
2479.000000	99.860177
2478.000000	99.860213
2477.000000	99.860313
2476.000000	99.860579
2475.000000	99.860967
2474.000000	99.861398
2473.000000	99.861831
2472.000000	99.862251
2471.000000	99.862645
2470.000000	99.863013
2469.000000	99.863375
2468.000000	99.863750
2467.000000	99.864144
2466.000000	99.864556
2465.000000	99.864984
2464.000000	99.865423
2463.000000	99.865870
2462.000000	99.866321
2461.000000	99.866777
2460.000000	99.867233
2459.000000	99.867688
2458.000000	99.868141
2457.000000	99.868599
2456.000000	99.869072
2455.000000	99.869563
2454.000000	99.870070
2453.000000	99.870583
2452.000000	99.871094
2451.000000	99.871600
2450.000000	99.872103
2449.000000	99.872606
2448.000000	99.873107
2447.000000	99.873607
2446.000000	99.874103
2445.000000	99.874592
2444.000000	99.875067
2443.000000	99.875524
2442.000000	99.875960
2441.000000	99.876377
2440.000000	99.876781
2439.000000	99.877177
2438.000000	99.877575
2437.000000	99.877976
2436.000000	99.878383
2435.000000	99.878810
2434.000000	99.879266
2433.000000	99.879689
2432.000000	99.879945
2431.000000	99.879942
2430.000000	99.879804
2429.000000	99.879834
2428.000000	99.880301
2427.000000	99.881285
2426.000000	99.882610
2425.000000	99.883867
2424.000000	99.884601
2423.000000	99.884743
2422.000000	99.884792
2421.000000	99.885300
2420.000000	99.886196
2419.000000	99.886914
2418.000000	99.887255
2417.000000	99.887766
2416.000000	99.888993
2415.000000	99.890587
2414.000000	99.891524
2413.000000	99.891229
2412.000000	99.890259
2411.000000	99.889827
2410.000000	99.890647
2409.000000	99.892207
2408.000000	99.893170
2407.000000	99.892641
2406.000000	99.891149
2405.000000	99.890176
2404.000000	99.890520
2403.000000	99.891403
2402.000000	99.891429
2401.000000	99.890272
2400.000000	99.888952
2399.000000	99.888606
2398.000000	99.889533
2397.000000	99.891321
2396.000000	99.893423
2395.000000	99.895389
2394.000000	99.897033
2393.000000	99.898678
2392.000000	99.900740
2391.000000	99.902901
2390.000000	99.904225
2389.000000	99.904498
2388.000000	99.905011
2387.000000	99.907346
2386.000000	99.911582
2385.000000	99.916260
2384.000000	99.920104
2383.000000	99.923224
2382.000000	99.926372
2381.000000	99.929598
2380.000000	99.932145
2379.000000	99.933452
2378.000000	99.933760
2377.000000	99.933729
2376.000000	99.933892
2375.000000	99.934616
2374.000000	99.936013
2373.000000	99.937530
2372.000000	99.937998
2371.000000	99.936834
2370.000000	99.935041
2369.000000	99.934529
2368.000000	99.936213
2367.000000	99.939381
2366.000000	99.942605
2365.000000	99.944833
2364.000000	99.945607
2363.000000	99.945019
2362.000000	99.943811
2361.000000	99.943156
2360.000000	99.943645
2359.000000	99.944483
2358.000000	99.944591
2357.000000	99.944060
2356.000000	99.943852
2355.000000	99.944547
2354.000000	99.945563
2353.000000	99.946028
2352.000000	99.945755
2351.000000	99.945281
2350.000000	99.945184
2349.000000	99.945358
2348.000000	99.945434
2347.000000	99.945244
2346.000000	99.944888
2345.000000	99.944602
2344.000000	99.944349
2343.000000	99.944084
2342.000000	99.943634
2341.000000	99.943087
2340.000000	99.942726
2339.000000	99.942659
2338.000000	99.942728
2337.000000	99.942450
2336.000000	99.941525
2335.000000	99.939949
2334.000000	99.938213
2333.000000	99.936839
2332.000000	99.936191
2331.000000	99.935843
2330.000000	99.935181
2329.000000	99.933561
2328.000000	99.931517
2327.000000	99.929900
2326.000000	99.929152
2325.000000	99.928807
2324.000000	99.928106
2323.000000	99.927110
2322.000000	99.926157
2321.000000	99.925334
2320.000000	99.924230
2319.000000	99.922408
2318.000000	99.920275
2317.000000	99.918437
2316.000000	99.917636
2315.000000	99.917680
2314.000000	99.918457
2313.000000	99.919517
2312.000000	99.920760
2311.000000	99.921437
2310.000000	99.921217
2309.000000	99.920127
2308.000000	99.919027
2307.000000	99.918236
2306.000000	99.917708
2305.000000	99.917202
2304.000000	99.916866
2303.000000	99.916236
2302.000000	99.914348
2301.000000	99.910449
2300.000000	99.905466
2299.000000	99.901168
2298.000000	99.898807
2297.000000	99.897986
2296.000000	99.897665
2295.000000	99.897056
2294.000000	99.896340
2293.000000	99.896086
2292.000000	99.896562
2291.000000	99.897388
2290.000000	99.898081
2289.000000	99.898797
2288.000000	99.900030
2287.000000	99.901598
2286.000000	99.902376
2285.000000	99.901599
2284.000000	99.899649
2283.000000	99.897467
2282.000000	99.895490
2281.000000	99.893823
2280.000000	99.892833
2279.000000	99.892817
2278.000000	99.893327
2277.000000	99.893493
2276.000000	99.892989
2275.000000	99.892067
2274.000000	99.890913
2273.000000	99.889519
2272.000000	99.888195
2271.000000	99.887469
2270.000000	99.887424
2269.000000	99.887597
2268.000000	99.887628
2267.000000	99.887601
2266.000000	99.887607
2265.000000	99.887430
2264.000000	99.886881
2263.000000	99.886136
2262.000000	99.885548
2261.000000	99.885262
2260.000000	99.885153
2259.000000	99.885062
2258.000000	99.884954
2257.000000	99.884868
2256.000000	99.884790
2255.000000	99.884671
2254.000000	99.884516
2253.000000	99.884363
2252.000000	99.884213
2251.000000	99.884071
2250.000000	99.883940
2249.000000	99.883822
2248.000000	99.883717
2247.000000	99.883626
2246.000000	99.883546
2245.000000	99.883473
2244.000000	99.883404
2243.000000	99.883341
2242.000000	99.883290
2241.000000	99.883253
2240.000000	99.883228
2239.000000	99.883209
2238.000000	99.883191
2237.000000	99.883170
2236.000000	99.883150
2235.000000	99.883134
2234.000000	99.883124
2233.000000	99.883120
2232.000000	99.883124
2231.000000	99.883138
2230.000000	99.883163
2229.000000	99.883199
2228.000000	99.883241
2227.000000	99.883286
2226.000000	99.883335
2225.000000	99.883389
2224.000000	99.883449
2223.000000	99.883518
2222.000000	99.883596
2221.000000	99.883681
2220.000000	99.883769
2219.000000	99.883849
2218.000000	99.883917
2217.000000	99.883975
2216.000000	99.884038
2215.000000	99.884126
2214.000000	99.884252
2213.000000	99.884406
2212.000000	99.884562
2211.000000	99.884692
2210.000000	99.884782
2209.000000	99.884838
2208.000000	99.884883
2207.000000	99.884946
2206.000000	99.885035
2205.000000	99.885112
2204.000000	99.885123
2203.000000	99.885046
2202.000000	99.884920
2201.000000	99.884839
2200.000000	99.884875
2199.000000	99.885027
2198.000000	99.885215
2197.000000	99.885336
2196.000000	99.885358
2195.000000	99.885330
2194.000000	99.885354
2193.000000	99.885497
2192.000000	99.885750
2191.000000	99.886036
2190.000000	99.886276
2189.000000	99.886457
2188.000000	99.886617
2187.000000	99.886792
2186.000000	99.886973
2185.000000	99.887129
2184.000000	99.887260
2183.000000	99.887402
2182.000000	99.887597
2181.000000	99.887853
2180.000000	99.888137
2179.000000	99.888397
2178.000000	99.888601
2177.000000	99.888760
2176.000000	99.888927
2175.000000	99.889149
2174.000000	99.889427
2173.000000	99.889731
2172.000000	99.890033
2171.000000	99.890316
2170.000000	99.890566
2169.000000	99.890801
2168.000000	99.891087
2167.000000	99.891478
2166.000000	99.891949
2165.000000	99.892397
2164.000000	99.892761
2163.000000	99.893093
2162.000000	99.893454
2161.000000	99.893793
2160.000000	99.894016
2159.000000	99.894127
2158.000000	99.894233
2157.000000	99.894426
2156.000000	99.894730
2155.000000	99.895131
2154.000000	99.895579
2153.000000	99.895998
2152.000000	99.896368
2151.000000	99.896769
2150.000000	99.897279
2149.000000	99.897869
2148.000000	99.898461
2147.000000	99.899034
2146.000000	99.899631
2145.000000	99.900293
2144.000000	99.900986
2143.000000	99.901586
2142.000000	99.901952
2141.000000	99.902088
2140.000000	99.902201
2139.000000	99.902521
2138.000000	99.903068
2137.000000	99.903688
2136.000000	99.904295
2135.000000	99.904926
2134.000000	99.905576
2133.000000	99.906143
2132.000000	99.906565
2131.000000	99.906874
2130.000000	99.907094
2129.000000	99.907240
2128.000000	99.907475
2127.000000	99.908052
2126.000000	99.909035
2125.000000	99.910186
2124.000000	99.911201
2123.000000	99.911980
2122.000000	99.912526
2121.000000	99.912799
2120.000000	99.912839
2119.000000	99.912917
2118.000000	99.913281
2117.000000	99.913795
2116.000000	99.914134
2115.000000	99.914321
2114.000000	99.914787
2113.000000	99.915874
2112.000000	99.917519
2111.000000	99.919325
2110.000000	99.920823
2109.000000	99.921707
2108.000000	99.921971
2107.000000	99.921914
2106.000000	99.921938
2105.000000	99.922306
2104.000000	99.923106
2103.000000	99.924265
2102.000000	99.925486
2101.000000	99.926355
2100.000000	99.926722
2099.000000	99.926875
2098.000000	99.927190
2097.000000	99.927685
2096.000000	99.928204
2095.000000	99.928875
2094.000000	99.930002
2093.000000	99.931483
2092.000000	99.932708
2091.000000	99.933191
2090.000000	99.933026
2089.000000	99.932590
2088.000000	99.932070
2087.000000	99.931503
2086.000000	99.931067
2085.000000	99.931021
2084.000000	99.931364
2083.000000	99.931790
2082.000000	99.932063
2081.000000	99.932359
2080.000000	99.933179
2079.000000	99.934914
2078.000000	99.937417
2077.000000	99.939907
2076.000000	99.941447
2075.000000	99.941672
2074.000000	99.941051
2073.000000	99.940536
2072.000000	99.940799
2071.000000	99.941808
2070.000000	99.943002
2069.000000	99.943758
2068.000000	99.943806
2067.000000	99.943368
2066.000000	99.943007
2065.000000	99.943214
2064.000000	99.944060
2063.000000	99.945233
2062.000000	99.946402
2061.000000	99.947420
2060.000000	99.948175
2059.000000	99.948460
2058.000000	99.948179
2057.000000	99.947608
2056.000000	99.947183
2055.000000	99.947046
2054.000000	99.947070
2053.000000	99.947356
2052.000000	99.948288
2051.000000	99.949870
2050.000000	99.951256
2049.000000	99.951436
2048.000000	99.950273
2047.000000	99.948630
2046.000000	99.947501
2045.000000	99.947185
2044.000000	99.947365
2043.000000	99.947570
2042.000000	99.947506
2041.000000	99.947203
2040.000000	99.946967
2039.000000	99.947024
2038.000000	99.947191
2037.000000	99.947072
2036.000000	99.946628
2035.000000	99.946316
2034.000000	99.946506
2033.000000	99.946955
2032.000000	99.947095
2031.000000	99.946726
2030.000000	99.946105
2029.000000	99.945496
2028.000000	99.944952
2027.000000	99.944563
2026.000000	99.944538
2025.000000	99.944896
2024.000000	99.945270
2023.000000	99.945245
2022.000000	99.944793
2021.000000	99.944221
2020.000000	99.943760
2019.000000	99.943381
2018.000000	99.943037
2017.000000	99.942851
2016.000000	99.942917
2015.000000	99.943055
2014.000000	99.942971
2013.000000	99.942641
2012.000000	99.942344
2011.000000	99.942242
2010.000000	99.942087
2009.000000	99.941545
2008.000000	99.940652
2007.000000	99.939778
2006.000000	99.939232
2005.000000	99.939039
2004.000000	99.939056
2003.000000	99.939138
2002.000000	99.939139
2001.000000	99.938882
2000.000000	99.938245
1999.000000	99.937269
1998.000000	99.936148
1997.000000	99.935150
1996.000000	99.934513
1995.000000	99.934314
1994.000000	99.934397
1993.000000	99.934542
1992.000000	99.934746
1991.000000	99.935176
1990.000000	99.935800
1989.000000	99.936246
1988.000000	99.936172
1987.000000	99.935637
1986.000000	99.935021
1985.000000	99.934646
1984.000000	99.934540
1983.000000	99.934570
1982.000000	99.934659
1981.000000	99.934837
1980.000000	99.935151
1979.000000	99.935550
1978.000000	99.935858
1977.000000	99.935868
1976.000000	99.935523
1975.000000	99.935011
1974.000000	99.934672
1973.000000	99.934723
1972.000000	99.935086
1971.000000	99.935457
1970.000000	99.935572
1969.000000	99.935443
1968.000000	99.935323
1967.000000	99.935404
1966.000000	99.935588
1965.000000	99.935663
1964.000000	99.935677
1963.000000	99.935948
1962.000000	99.936623
1961.000000	99.937383
1960.000000	99.937761
1959.000000	99.937764
1958.000000	99.937884
1957.000000	99.938404
1956.000000	99.938999
1955.000000	99.939254
1954.000000	99.939316
1953.000000	99.939730
1952.000000	99.940669
1951.000000	99.941576
1950.000000	99.941704
1949.000000	99.940900
1948.000000	99.939812
1947.000000	99.939316
1946.000000	99.939692
1945.000000	99.940362
1944.000000	99.940413
1943.000000	99.939382
1942.000000	99.937546
1941.000000	99.935555
1940.000000	99.933922
1939.000000	99.933023
1938.000000	99.933200
1937.000000	99.934433
1936.000000	99.935983
1935.000000	99.936834
1934.000000	99.936627
1933.000000	99.935916
1932.000000	99.935365
1931.000000	99.934920
1930.000000	99.934005
1929.000000	99.932424
1928.000000	99.930689
1927.000000	99.929474
1926.000000	99.929109
1925.000000	99.929522
1924.000000	99.930389
1923.000000	99.931114
1922.000000	99.931046
1921.000000	99.929975
1920.000000	99.928150
1919.000000	99.925751
1918.000000	99.922677
1917.000000	99.919134
1916.000000	99.916073
1915.000000	99.914551
1914.000000	99.914796
1913.000000	99.915833
1912.000000	99.916022
1911.000000	99.914200
1910.000000	99.910438
1909.000000	99.905988
1908.000000	99.902262
1907.000000	99.899724
1906.000000	99.897988
1905.000000	99.896527
1904.000000	99.895113
1903.000000	99.893496
1902.000000	99.891229
1901.000000	99.888223
1900.000000	99.885089
1899.000000	99.882605
1898.000000	99.881057
1897.000000	99.880147
1896.000000	99.879350
1895.000000	99.878122
1894.000000	99.876112
1893.000000	99.873554
1892.000000	99.871254
1891.000000	99.869929
1890.000000	99.869623
1889.000000	99.869772
1888.000000	99.869631
1887.000000	99.868550
1886.000000	99.866195
1885.000000	99.862991
1884.000000	99.860066
1883.000000	99.858083
1882.000000	99.856312
1881.000000	99.853621
1880.000000	99.850229
1879.000000	99.847825
1878.000000	99.847938
1877.000000	99.850515
1876.000000	99.854024
1875.000000	99.856558
1874.000000	99.856806
1873.000000	99.854671
1872.000000	99.851442
1871.000000	99.849075
1870.000000	99.848953
1869.000000	99.850982
1868.000000	99.853779
1867.000000	99.856064
1866.000000	99.857666
1865.000000	99.859114
1864.000000	99.860937
1863.000000	99.863462
1862.000000	99.866864
1861.000000	99.871098
1860.000000	99.875644
1859.000000	99.879407
1858.000000	99.881287
1857.000000	99.881205
1856.000000	99.880431
1855.000000	99.880552
1854.000000	99.882116
1853.000000	99.884494
1852.000000	99.886897
1851.000000	99.889173
1850.000000	99.891831
1849.000000	99.895117
1848.000000	99.898317
1847.000000	99.900196
1846.000000	99.900251
1845.000000	99.899452
1844.000000	99.899329
1843.000000	99.899968
1842.000000	99.900320
1841.000000	99.900560
1840.000000	99.902053
1839.000000	99.905193
1838.000000	99.908311
1837.000000	99.909368
1836.000000	99.908490
1835.000000	99.907594
1834.000000	99.907949
1833.000000	99.909352
1832.000000	99.911370
1831.000000	99.913969
1830.000000	99.916655
1829.000000	99.918169
1828.000000	99.918026
1827.000000	99.917090
1826.000000	99.916269
1825.000000	99.915765
1824.000000	99.915682
1823.000000	99.916269
1822.000000	99.917260
1821.000000	99.917833
1820.000000	99.917583
1819.000000	99.917047
1818.000000	99.916709
1817.000000	99.916093
1816.000000	99.914629
1815.000000	99.912729
1814.000000	99.911397
1813.000000	99.911198
1812.000000	99.911952
1811.000000	99.913153
1810.000000	99.914235
1809.000000	99.914919
1808.000000	99.915539
1807.000000	99.916488
1806.000000	99.917315
1805.000000	99.916915
1804.000000	99.914832
1803.000000	99.911900
1802.000000	99.909409
1801.000000	99.908076
1800.000000	99.908063
1799.000000	99.909528
1798.000000	99.912194
1797.000000	99.914893
1796.000000	99.916423
1795.000000	99.916754
1794.000000	99.916893
1793.000000	99.917634
1792.000000	99.918695
1791.000000	99.919452
1790.000000	99.919917
1789.000000	99.920540
1788.000000	99.921558
1787.000000	99.922847
1786.000000	99.924041
1785.000000	99.924741
1784.000000	99.924955
1783.000000	99.925120
1782.000000	99.925449
1781.000000	99.925505
1780.000000	99.924706
1779.000000	99.923511
1778.000000	99.923121
1777.000000	99.924160
1776.000000	99.926131
1775.000000	99.928076
1774.000000	99.929599
1773.000000	99.930883
1772.000000	99.932207
1771.000000	99.933852
1770.000000	99.935956
1769.000000	99.938016
1768.000000	99.939057
1767.000000	99.938674
1766.000000	99.937436
1765.000000	99.936090
1764.000000	99.934991
1763.000000	99.934484
1762.000000	99.935022
1761.000000	99.936446
1760.000000	99.937923
1759.000000	99.939150
1758.000000	99.940249
1757.000000	99.941207
1756.000000	99.941929
1755.000000	99.942767
1754.000000	99.944449
1753.000000	99.947093
1752.000000	99.949794
1751.000000	99.951478
1750.000000	99.951830
1749.000000	99.950888
1748.000000	99.948918
1747.000000	99.946851
1746.000000	99.946114
1745.000000	99.947097
1744.000000	99.948298
1743.000000	99.948014
1742.000000	99.946203
1741.000000	99.944238
1740.000000	99.943192
1739.000000	99.942901
1738.000000	99.942559
1737.000000	99.941740
1736.000000	99.940133
1735.000000	99.937078
1734.000000	99.932862
1733.000000	99.929249
1732.000000	99.926916
1731.000000	99.924912
1730.000000	99.921776
1729.000000	99.917497
1728.000000	99.914238
1727.000000	99.914009
1726.000000	99.916780
1725.000000	99.920486
1724.000000	99.922329
1723.000000	99.920539
1722.000000	99.915072
1721.000000	99.907669
1720.000000	99.901154
1719.000000	99.898021
1718.000000	99.898195
1717.000000	99.898474
1716.000000	99.897362
1715.000000	99.896896
1714.000000	99.897664
1713.000000	99.897141
1712.000000	99.893183
1711.000000	99.886124
1710.000000	99.877637
1709.000000	99.869018
1708.000000	99.860617
1707.000000	99.852435
1706.000000	99.844811
1705.000000	99.838171
1704.000000	99.832402
1703.000000	99.826777
1702.000000	99.820425
1701.000000	99.812479
1700.000000	99.803333
1699.000000	99.794390
1698.000000	99.786276
1697.000000	99.779529
1696.000000	99.774678
1695.000000	99.771644
1694.000000	99.768890
1693.000000	99.765098
1692.000000	99.759904
1691.000000	99.753046
1690.000000	99.744719
1689.000000	99.735750
1688.000000	99.726749
1687.000000	99.717374
1686.000000	99.706670
1685.000000	99.694368
1684.000000	99.683596
1683.000000	99.677638
1682.000000	99.674862
1681.000000	99.672288
1680.000000	99.667815
1679.000000	99.660351
1678.000000	99.650119
1677.000000	99.638360
1676.000000	99.627701
1675.000000	99.621061
1674.000000	99.617846
1673.000000	99.614375
1672.000000	99.608575
1671.000000	99.601137
1670.000000	99.593606
1669.000000	99.586403
1668.000000	99.578663
1667.000000	99.570213
1666.000000	99.561428
1665.000000	99.551819
1664.000000	99.540822
1663.000000	99.529643
1662.000000	99.520841
1661.000000	99.515807
1660.000000	99.513902
1659.000000	99.513675
1658.000000	99.513259
1657.000000	99.510950
1656.000000	99.506570
1655.000000	99.502313
1654.000000	99.500886
1653.000000	99.499457
1652.000000	99.493062
1651.000000	99.485244
1650.000000	99.481675
1649.000000	99.481736
1648.000000	99.481560
1647.000000	99.478664
1646.000000	99.473535
1645.000000	99.467678
1644.000000	99.461867
1643.000000	99.456389
1642.000000	99.451774
1641.000000	99.449207
1640.000000	99.449159
1639.000000	99.450652
1638.000000	99.452440
1637.000000	99.454099
1636.000000	99.455130
1635.000000	99.453696
1634.000000	99.449329
1633.000000	99.444573
1632.000000	99.442232
1631.000000	99.442852
1630.000000	99.445804
1629.000000	99.451055
1628.000000	99.459248
1627.000000	99.469772
1626.000000	99.479900
1625.000000	99.487118
1624.000000	99.491547
1623.000000	99.495689
1622.000000	99.500976
1621.000000	99.506187
1620.000000	99.509837
1619.000000	99.512043
1618.000000	99.514474
1617.000000	99.519386
1616.000000	99.527449
1615.000000	99.537322
1614.000000	99.548107
1613.000000	99.559635
1612.000000	99.571346
1611.000000	99.582225
1610.000000	99.591459
1609.000000	99.599372
1608.000000	99.607134
1607.000000	99.615109
1606.000000	99.622209
1605.000000	99.627629
1604.000000	99.632339
1603.000000	99.638155
1602.000000	99.645169
1601.000000	99.651567
1600.000000	99.656577
1599.000000	99.661804
1598.000000	99.668695
1597.000000	99.675884
1596.000000	99.680576
1595.000000	99.682187
1594.000000	99.683327
1593.000000	99.687052
1592.000000	99.694091
1591.000000	99.702951
1590.000000	99.711484
1589.000000	99.718271
1588.000000	99.723318
1587.000000	99.727824
1586.000000	99.732914
1585.000000	99.738542
1584.000000	99.743811
1583.000000	99.748225
1582.000000	99.752183
1581.000000	99.755822
1580.000000	99.758378
1579.000000	99.759387
1578.000000	99.760180
1577.000000	99.763401
1576.000000	99.769656
1575.000000	99.775643
1574.000000	99.779106
1573.000000	99.781605
1572.000000	99.785280
1571.000000	99.791085
1570.000000	99.798203
1569.000000	99.804729
1568.000000	99.810046
1567.000000	99.814854
1566.000000	99.819055
1565.000000	99.821524
1564.000000	99.822188
1563.000000	99.822368
1562.000000	99.823040
1561.000000	99.824069
1560.000000	99.825430
1559.000000	99.828210
1558.000000	99.832112
1557.000000	99.834759
1556.000000	99.836284
1555.000000	99.837494
1554.000000	99.838266
1553.000000	99.838160
1552.000000	99.836752
1551.000000	99.834810
1550.000000	99.833730
1549.000000	99.833905
1548.000000	99.834647
1547.000000	99.835857
1546.000000	99.838556
1545.000000	99.842978
1544.000000	99.847316
1543.000000	99.849683
1542.000000	99.850583
1541.000000	99.851791
1540.000000	99.853320
1539.000000	99.853721
1538.000000	99.853635
1537.000000	99.854819
1536.000000	99.857209
1535.000000	99.859210
1534.000000	99.859641
1533.000000	99.858795
1532.000000	99.857755
1531.000000	99.857292
1530.000000	99.857543
1529.000000	99.858438
1528.000000	99.859949
1527.000000	99.861788
1526.000000	99.863433
1525.000000	99.864706
1524.000000	99.866080
1523.000000	99.868275
1522.000000	99.871278
1521.000000	99.873807
1520.000000	99.874866
1519.000000	99.875257
1518.000000	99.876271
1517.000000	99.878121
1516.000000	99.880275
1515.000000	99.882304
1514.000000	99.884188
1513.000000	99.885792
1512.000000	99.886737
1511.000000	99.887027
1510.000000	99.886995
1509.000000	99.887112
1508.000000	99.888468
1507.000000	99.892786
1506.000000	99.898968
1505.000000	99.903344
1504.000000	99.905468
1503.000000	99.907194
1502.000000	99.909313
1501.000000	99.911394
1500.000000	99.912150
1499.000000	99.910781
1498.000000	99.908581
1497.000000	99.908190
1496.000000	99.910457
1495.000000	99.913329
1494.000000	99.914652
1493.000000	99.913947
1492.000000	99.911707
1491.000000	99.909378
1490.000000	99.909323
1489.000000	99.912969
1488.000000	99.919229
1487.000000	99.925581
1486.000000	99.929804
1485.000000	99.931222
1484.000000	99.930727
1483.000000	99.929787
1482.000000	99.929455
1481.000000	99.929474
1480.000000	99.928837
1479.000000	99.926988
1478.000000	99.924178
1477.000000	99.920767
1476.000000	99.916769
1475.000000	99.911952
1474.000000	99.906417
1473.000000	99.901023
1472.000000	99.896750
1471.000000	99.893907
1470.000000	99.892258
1469.000000	99.891598
1468.000000	99.891683
1467.000000	99.892137
1466.000000	99.892199
1465.000000	99.890538
1464.000000	99.885980
1463.000000	99.878937
1462.000000	99.871070
1461.000000	99.863782
1460.000000	99.857817
1459.000000	99.853658
1458.000000	99.852090
1457.000000	99.853107
1456.000000	99.854556
1455.000000	99.854610
1454.000000	99.853681
1453.000000	99.852102
1452.000000	99.849539
1451.000000	99.846028
1450.000000	99.842234
1449.000000	99.839271
1448.000000	99.837760
1447.000000	99.836559
1446.000000	99.833740
1445.000000	99.829046
1444.000000	99.823973
1443.000000	99.820228
1442.000000	99.818091
1441.000000	99.816517
1440.000000	99.814348
1439.000000	99.810951
1438.000000	99.806113
1437.000000	99.800463
1436.000000	99.795802
1435.000000	99.793108
1434.000000	99.791478
1433.000000	99.789454
1432.000000	99.786362
1431.000000	99.782749
1430.000000	99.779802
1429.000000	99.778435
1428.000000	99.778949
1427.000000	99.780760
1426.000000	99.782865
1425.000000	99.784867
1424.000000	99.786968
1423.000000	99.788910
1422.000000	99.789214
1421.000000	99.786531
1420.000000	99.782085
1419.000000	99.780680
1418.000000	99.785854
1417.000000	99.795306
1416.000000	99.804354
1415.000000	99.809841
1414.000000	99.810929
1413.000000	99.808904
1412.000000	99.806215
1411.000000	99.805159
1410.000000	99.806770
1409.000000	99.810884
1408.000000	99.817284
1407.000000	99.826082
1406.000000	99.836956
1405.000000	99.848379
1404.000000	99.857865
1403.000000	99.863850
1402.000000	99.866786
1401.000000	99.868248
1400.000000	99.869707
1399.000000	99.871807
1398.000000	99.874299
1397.000000	99.877098
1396.000000	99.881210
1395.000000	99.887605
1394.000000	99.895093
1393.000000	99.900770
1392.000000	99.903325
1391.000000	99.904556
1390.000000	99.907460
1389.000000	99.913288
1388.000000	99.919958
1387.000000	99.924142
1386.000000	99.925504
1385.000000	99.926911
1384.000000	99.930239
1383.000000	99.934244
1382.000000	99.936326
1381.000000	99.935132
1380.000000	99.931264
1379.000000	99.926326
1378.000000	99.922184
1377.000000	99.920435
1376.000000	99.921624
1375.000000	99.924529
1374.000000	99.926812
1373.000000	99.927445
1372.000000	99.927887
1371.000000	99.929954
1370.000000	99.933436
1369.000000	99.936390
1368.000000	99.937473
1367.000000	99.937482
1366.000000	99.937985
1365.000000	99.939315
1364.000000	99.940804
1363.000000	99.942465
1362.000000	99.945218
1361.000000	99.948993
1360.000000	99.952042
1359.000000	99.952822
1358.000000	99.951549
1357.000000	99.949632
1356.000000	99.948140
1355.000000	99.947301
1354.000000	99.947196
1353.000000	99.948024
1352.000000	99.949555
1351.000000	99.950914
1350.000000	99.951295
1349.000000	99.950668
1348.000000	99.949499
1347.000000	99.948277
1346.000000	99.947469
1345.000000	99.947602
1344.000000	99.948906
1343.000000	99.950913
1342.000000	99.952535
1341.000000	99.952551
1340.000000	99.950250
1339.000000	99.946039
1338.000000	99.941503
1337.000000	99.938482
1336.000000	99.938012
1335.000000	99.940036
1334.000000	99.943754
1333.000000	99.948142
1332.000000	99.952251
1331.000000	99.955304
1330.000000	99.956846
1329.000000	99.956801
1328.000000	99.955194
1327.000000	99.951979
1326.000000	99.947511
1325.000000	99.943169
1324.000000	99.940901
1323.000000	99.941602
1322.000000	99.943955
1321.000000	99.945450
1320.000000	99.944844
1319.000000	99.943348
1318.000000	99.943205
1317.000000	99.945385
1316.000000	99.949035
1315.000000	99.952592
1314.000000	99.954680
1313.000000	99.954371
1312.000000	99.951573
1311.000000	99.947458
1310.000000	99.944079
1309.000000	99.943224
1308.000000	99.945443
1307.000000	99.949730
1306.000000	99.953944
1305.000000	99.956066
1304.000000	99.955616
1303.000000	99.953834
1302.000000	99.952187
1301.000000	99.950952
1300.000000	99.949809
1299.000000	99.949304
1298.000000	99.950454
1297.000000	99.952735
1296.000000	99.953782
1295.000000	99.951901
1294.000000	99.948170
1293.000000	99.945113
1292.000000	99.943678
1291.000000	99.942502
1290.000000	99.940128
1289.000000	99.937047
1288.000000	99.935102
1287.000000	99.935282
1286.000000	99.936640
1285.000000	99.937313
1284.000000	99.936097
1283.000000	99.932967
1282.000000	99.928725
1281.000000	99.924621
1280.000000	99.921847
1279.000000	99.920551
1278.000000	99.919352
1277.000000	99.916628
1276.000000	99.912593
1275.000000	99.909468
1274.000000	99.909218
1273.000000	99.911609
1272.000000	99.914723
1271.000000	99.916806
1270.000000	99.917281
1269.000000	99.916508
1268.000000	99.915071
1267.000000	99.913024
1266.000000	99.909702
1265.000000	99.904828
1264.000000	99.899914
1263.000000	99.897500
1262.000000	99.898323
1261.000000	99.900093
1260.000000	99.899789
1259.000000	99.896384
1258.000000	99.890636
1257.000000	99.883299
1256.000000	99.874764
1255.000000	99.865546
1254.000000	99.855457
1253.000000	99.842690
1252.000000	99.825467
1251.000000	99.804934
1250.000000	99.785155
1249.000000	99.769582
1248.000000	99.758114
1247.000000	99.747770
1246.000000	99.735624
1245.000000	99.721020
1244.000000	99.705510
1243.000000	99.690861
1242.000000	99.677087
1241.000000	99.662755
1240.000000	99.647228
1239.000000	99.631700
1238.000000	99.617351
1237.000000	99.603150
1236.000000	99.586414
1235.000000	99.565374
1234.000000	99.540860
1233.000000	99.515929
1232.000000	99.494025
1231.000000	99.476382
1230.000000	99.460257
1229.000000	99.440493
1228.000000	99.413632
1227.000000	99.380082
1226.000000	99.342151
1225.000000	99.301231
1224.000000	99.257689
1223.000000	99.211837
1222.000000	99.163162
1221.000000	99.109614
1220.000000	99.049738
1219.000000	98.985154
1218.000000	98.919037
1217.000000	98.852230
1216.000000	98.782575
1215.000000	98.708009
1214.000000	98.628664
1213.000000	98.545998
1212.000000	98.461589
1211.000000	98.377189
1210.000000	98.294439
1209.000000	98.213569
1208.000000	98.132745
1207.000000	98.049133
1206.000000	97.961236
1205.000000	97.870785
1204.000000	97.781869
1203.000000	97.697379
1202.000000	97.616782
1201.000000	97.537961
1200.000000	97.459863
1199.000000	97.381783
1198.000000	97.301788
1197.000000	97.218781
1196.000000	97.135105
1195.000000	97.053770
1194.000000	96.973583
1193.000000	96.890559
1192.000000	96.803886
1191.000000	96.716668
1190.000000	96.630523
1189.000000	96.543561
1188.000000	96.454703
1187.000000	96.366069
1186.000000	96.279430
1185.000000	96.193369
1184.000000	96.105498
1183.000000	96.014904
1182.000000	95.921480
1181.000000	95.825421
1180.000000	95.728015
1179.000000	95.630297
1178.000000	95.530574
1177.000000	95.425938
1176.000000	95.315986
1175.000000	95.202140
1174.000000	95.084320
1173.000000	94.962283
1172.000000	94.839071
1171.000000	94.717960
1170.000000	94.596711
1169.000000	94.470930
1168.000000	94.343425
1167.000000	94.224284
1166.000000	94.121648
1165.000000	94.039401
1164.000000	93.984315
1163.000000	93.966651
1162.000000	93.989662
1161.000000	94.043283
1160.000000	94.109455
1159.000000	94.168861
1158.000000	94.203416
1157.000000	94.200716
1156.000000	94.159832
1155.000000	94.089413
1154.000000	93.998894
1153.000000	93.894465
1152.000000	93.782524
1151.000000	93.670318
1150.000000	93.561179
1149.000000	93.453960
1148.000000	93.347721
1147.000000	93.241861
1146.000000	93.132738
1145.000000	93.017438
1144.000000	92.900657
1143.000000	92.789935
1142.000000	92.683837
1141.000000	92.573480
1140.000000	92.456148
1139.000000	92.337747
1138.000000	92.220583
1137.000000	92.099162
1136.000000	91.970770
1135.000000	91.839845
1134.000000	91.708093
1133.000000	91.570390
1132.000000	91.425490
1131.000000	91.281731
1130.000000	91.146481
1129.000000	91.017331
1128.000000	90.888329
1127.000000	90.757387
1126.000000	90.623315
1125.000000	90.483079
1124.000000	90.336588
1123.000000	90.188126
1122.000000	90.040085
1121.000000	89.891600
1120.000000	89.744872
1119.000000	89.604885
1118.000000	89.471503
1117.000000	89.340466
1116.000000	89.212759
1115.000000	89.092910
1114.000000	88.977471
1113.000000	88.856837
1112.000000	88.730012
1111.000000	88.605662
1110.000000	88.487488
1109.000000	88.371212
1108.000000	88.256955
1107.000000	88.150538
1106.000000	88.050144
1105.000000	87.945645
1104.000000	87.834085
1103.000000	87.721975
1102.000000	87.609746
1101.000000	87.489110
1100.000000	87.359639
1099.000000	87.232937
1098.000000	87.115271
1097.000000	87.000118
1096.000000	86.882717
1095.000000	86.767900
1094.000000	86.658240
1093.000000	86.548114
1092.000000	86.434742
1091.000000	86.322448
1090.000000	86.212164
1089.000000	86.099997
1088.000000	85.989253
1087.000000	85.889540
1086.000000	85.800710
1085.000000	85.712359
1084.000000	85.621889
1083.000000	85.537343
1082.000000	85.459436
1081.000000	85.377535
1080.000000	85.287674
1079.000000	85.198320
1078.000000	85.114027
1077.000000	85.029217
1076.000000	84.941881
1075.000000	84.856082
1074.000000	84.766229
1073.000000	84.656301
1072.000000	84.520154
1071.000000	84.366931
1070.000000	84.202092
1069.000000	84.019007
1068.000000	83.814067
1067.000000	83.593800
1066.000000	83.362324
1065.000000	83.118381
1064.000000	82.869897
1063.000000	82.633791
1062.000000	82.414953
1061.000000	82.202390
1060.000000	81.991098
1059.000000	81.789081
1058.000000	81.597407
1057.000000	81.403124
1056.000000	81.198957
1055.000000	80.991028
1054.000000	80.779883
1053.000000	80.553309
1052.000000	80.307139
1051.000000	80.053672
1050.000000	79.798750
1049.000000	79.531042
1048.000000	79.244782
1047.000000	78.950947
1046.000000	78.656198
1045.000000	78.352184
1044.000000	78.034104
1043.000000	77.710602
1042.000000	77.388240
1041.000000	77.064338
1040.000000	76.741715
1039.000000	76.432009
1038.000000	76.137879
1037.000000	75.850707
1036.000000	75.571678
1035.000000	75.315353
1034.000000	75.086750
1033.000000	74.875510
1032.000000	74.678051
1031.000000	74.504164
1030.000000	74.355779
1029.000000	74.221052
1028.000000	74.095908
1027.000000	73.989783
1026.000000	73.903148
1025.000000	73.820491
1024.000000	73.732604
1023.000000	73.646226
1022.000000	73.566098
1021.000000	73.487216
1020.000000	73.409063
1019.000000	73.337289
1018.000000	73.267376
1017.000000	73.186704
1016.000000	73.095454
1015.000000	73.005255
1014.000000	72.916550
1013.000000	72.819857
1012.000000	72.719940
1011.000000	72.633940
1010.000000	72.563256
1009.000000	72.492152
1008.000000	72.417351
1007.000000	72.353912
1006.000000	72.307775
1005.000000	72.267608
1004.000000	72.228713
1003.000000	72.200803
1002.000000	72.187002
1001.000000	72.178848
1000.000000	72.176596
999.000000	72.190866
998.000000	72.219848
997.000000	72.248634
996.000000	72.275207
995.000000	72.312875
994.000000	72.362835
993.000000	72.409400
992.000000	72.447896
991.000000	72.492966
990.000000	72.553257
989.000000	72.621409
988.000000	72.694654
987.000000	72.781994
986.000000	72.885181
985.000000	72.995395
984.000000	73.114330
983.000000	73.256059
982.000000	73.422522
981.000000	73.599390
980.000000	73.781632
979.000000	73.981392
978.000000	74.205429
977.000000	74.446630
976.000000	74.702778
975.000000	74.981912
974.000000	75.283309
973.000000	75.593802
972.000000	75.908671
971.000000	76.236973
970.000000	76.581490
969.000000	76.932147
968.000000	77.283186
967.000000	77.638580
966.000000	77.997203
965.000000	78.350455
964.000000	78.696955
963.000000	79.041897
962.000000	79.380613
961.000000	79.701463
960.000000	80.006480
959.000000	80.309994
958.000000	80.614586
957.000000	80.907672
956.000000	81.184753
955.000000	81.456127
954.000000	81.725655
953.000000	81.981152
952.000000	82.211898
951.000000	82.419957
950.000000	82.609830
949.000000	82.782050
948.000000	82.940827
947.000000	83.092686
946.000000	83.233472
945.000000	83.351648
944.000000	83.448321
943.000000	83.539683
942.000000	83.636129
941.000000	83.733220
940.000000	83.826203
939.000000	83.917665
938.000000	84.007139
937.000000	84.088993
936.000000	84.165458
935.000000	84.247390
934.000000	84.338034
933.000000	84.430017
932.000000	84.521255
931.000000	84.618334
930.000000	84.720768
929.000000	84.818029
928.000000	84.906843
927.000000	84.996286
926.000000	85.090926
925.000000	85.183287
924.000000	85.267417
923.000000	85.345607
922.000000	85.417490
921.000000	85.477049
920.000000	85.525246
919.000000	85.571866
918.000000	85.620154
917.000000	85.663038
916.000000	85.698801
915.000000	85.737223
914.000000	85.786720
913.000000	85.849527
912.000000	85.932865
911.000000	86.049191
910.000000	86.200249
909.000000	86.375227
908.000000	86.569110
907.000000	86.788592
906.000000	87.036136
905.000000	87.303714
904.000000	87.586707
903.000000	87.888644
902.000000	88.206866
901.000000	88.527691
900.000000	88.841440
899.000000	89.150221
898.000000	89.456936
897.000000	89.758660
896.000000	90.053924
895.000000	90.344058
894.000000	90.623769
893.000000	90.882620
892.000000	91.119876
891.000000	91.346942
890.000000	91.571488
889.000000	91.789787
888.000000	91.998275
887.000000	92.201670
886.000000	92.404808
885.000000	92.605729
884.000000	92.801027
883.000000	92.989752
882.000000	93.169618
881.000000	93.338540
880.000000	93.502234
879.000000	93.670683
878.000000	93.844730
877.000000	94.016080
876.000000	94.182096
875.000000	94.349363
874.000000	94.521210
873.000000	94.694228
872.000000	94.869447
871.000000	95.053621
870.000000	95.245083
869.000000	95.430487
868.000000	95.601282
867.000000	95.764113
866.000000	95.930038
865.000000	96.101192
864.000000	96.272201
863.000000	96.437506
862.000000	96.593485
861.000000	96.739598
860.000000	96.880492
859.000000	97.021285
858.000000	97.158586
857.000000	97.282074
856.000000	97.386646
855.000000	97.477194
854.000000	97.560363
853.000000	97.638022
852.000000	97.710351
851.000000	97.778593
850.000000	97.842555
849.000000	97.900847
848.000000	97.954031
847.000000	98.001014
846.000000	98.033226
845.000000	98.041620
844.000000	98.030375
843.000000	98.013784
842.000000	97.996765
841.000000	97.968018
840.000000	97.915966
839.000000	97.841852
838.000000	97.753152
837.000000	97.654127
836.000000	97.548904
835.000000	97.444954
834.000000	97.346358
833.000000	97.251248
832.000000	97.162539
831.000000	97.092679
830.000000	97.049216
829.000000	97.023542
828.000000	97.004700
827.000000	96.998826
826.000000	97.023172
825.000000	97.082779
824.000000	97.162478
823.000000	97.240480
822.000000	97.302655
821.000000	97.345731
820.000000	97.373680
819.000000	97.391367
818.000000	97.398309
817.000000	97.388382
816.000000	97.355018
815.000000	97.293091
814.000000	97.195429
813.000000	97.052211
812.000000	96.854989
811.000000	96.596317
810.000000	96.264869
809.000000	95.848958
808.000000	95.349826
807.000000	94.786120
806.000000	94.180991
805.000000	93.551329
804.000000	92.914468
803.000000	92.296162
802.000000	91.723840
801.000000	91.220269
800.000000	90.810354
799.000000	90.521667
798.000000	90.366256
797.000000	90.328891
796.000000	90.380650
795.000000	90.497007
794.000000	90.659109
793.000000	90.848109
792.000000	91.045162
791.000000	91.231317
790.000000	91.385164
789.000000	91.487696
788.000000	91.531298
787.000000	91.517654
786.000000	91.446861
785.000000	91.316846
784.000000	91.134743
783.000000	90.920466
782.000000	90.696889
781.000000	90.484376
780.000000	90.305959
779.000000	90.186932
778.000000	90.144557
777.000000	90.184441
776.000000	90.305284
775.000000	90.495724
774.000000	90.728139
773.000000	90.970893
772.000000	91.209650
771.000000	91.445746
770.000000	91.674557
769.000000	91.879444
768.000000	92.048325
767.000000	92.182592
766.000000	92.287042
765.000000	92.364096
764.000000	92.421848
763.000000	92.475030
762.000000	92.531564
761.000000	92.587309
760.000000	92.638241
759.000000	92.688145
758.000000	92.740943
757.000000	92.796488
756.000000	92.858144
755.000000	92.933085
754.000000	93.019477
753.000000	93.104105
752.000000	93.179291
751.000000	93.253425
750.000000	93.339018
749.000000	93.438575
748.000000	93.547956
747.000000	93.665635
746.000000	93.791902
745.000000	93.924983
744.000000	94.063850
743.000000	94.210435
742.000000	94.365411
741.000000	94.526833
740.000000	94.695375
739.000000	94.874494
738.000000	95.061855
737.000000	95.245615
736.000000	95.412311
735.000000	95.555003
734.000000	95.674167
733.000000	95.776505
732.000000	95.872496
731.000000	95.967717
730.000000	96.054924
729.000000	96.120722
728.000000	96.161329
727.000000	96.186799
726.000000	96.210272
725.000000	96.239885
724.000000	96.281229
723.000000	96.339428
722.000000	96.415989
721.000000	96.508288
720.000000	96.611788
719.000000	96.717572
718.000000	96.811063
717.000000	96.882983
716.000000	96.941407
715.000000	97.004030
714.000000	97.076728
713.000000	97.146900
712.000000	97.198187
711.000000	97.223362
710.000000	97.223564
709.000000	97.205985
708.000000	97.183944
707.000000	97.167585
706.000000	97.149819
705.000000	97.110681
704.000000	97.038202
703.000000	96.933727
702.000000	96.792865
701.000000	96.594446
700.000000	96.318191
699.000000	95.968406
698.000000	95.578407
697.000000	95.201916
696.000000	94.902413
695.000000	94.733280
694.000000	94.711734
693.000000	94.811733
692.000000	94.986097
691.000000	95.195080
690.000000	95.415902
689.000000	95.635385
688.000000	95.842913
687.000000	96.029163
686.000000	96.186260
685.000000	96.309771
684.000000	96.402777
683.000000	96.475608
682.000000	96.539870
681.000000	96.604117
680.000000	96.673446
679.000000	96.748038
678.000000	96.823246
677.000000	96.895365
676.000000	96.968090
675.000000	97.046243
674.000000	97.127334
673.000000	97.206857
672.000000	97.284920
671.000000	97.361391
670.000000	97.430985
669.000000	97.492114
668.000000	97.555186
667.000000	97.632023
666.000000	97.719760
665.000000	97.801346
664.000000	97.873035
663.000000	97.947616
662.000000	98.026392
661.000000	98.092406
660.000000	98.132854
659.000000	98.152339
658.000000	98.160110
657.000000	98.159204
656.000000	98.155287
655.000000	98.157508
654.000000	98.162533
653.000000	98.154975
652.000000	98.132511
651.000000	98.116990
650.000000	98.128960
649.000000	98.163506
648.000000	98.201955
647.000000	98.234736
646.000000	98.265057
645.000000	98.301942
644.000000	98.356268
643.000000	98.432144
642.000000	98.516492
641.000000	98.590583
640.000000	98.654392
639.000000	98.722511
638.000000	98.794212
637.000000	98.849903
636.000000	98.883575
635.000000	98.914833
634.000000	98.957297
633.000000	98.996237
632.000000	99.011293
631.000000	99.003888
630.000000	98.993409
629.000000	99.003246
628.000000	99.059642
627.000000	99.182061
626.000000	99.353021
625.000000	99.517181
624.000000	99.633080
623.000000	99.711556
622.000000	99.792037
621.000000	99.893991
620.000000	100.002576
619.000000	100.084900
618.000000	100.108592
617.000000	100.064535
616.000000	99.987481
615.000000	99.942074
614.000000	99.964961
613.000000	100.026300
612.000000	100.063622
611.000000	100.041446
610.000000	99.972744
609.000000	99.895865
608.000000	99.840641
607.000000	99.805549
606.000000	99.755347
605.000000	99.656783
604.000000	99.525223
603.000000	99.417549
602.000000	99.369810
601.000000	99.365578
600.000000	99.377286
599.000000	99.407592
598.000000	99.470511
597.000000	99.556578
596.000000	99.635505
595.000000	99.675461
594.000000	99.655412
593.000000	99.581579
592.000000	99.498046
591.000000	99.457018
590.000000	99.464159
589.000000	99.481516
588.000000	99.490195
587.000000	99.506912
586.000000	99.533079
585.000000	99.541179
584.000000	99.532957
583.000000	99.556627
582.000000	99.634259
581.000000	99.724371
580.000000	99.791929
579.000000	99.858155
578.000000	99.942322
577.000000	100.012491
576.000000	100.038783
575.000000	100.039924
574.000000	100.033941
573.000000	99.996018
572.000000	99.910425
571.000000	99.811322
570.000000	99.718678
569.000000	99.581146
568.000000	99.347584
567.000000	99.056366
566.000000	98.796762
565.000000	98.600030
564.000000	98.427021
563.000000	98.236736
562.000000	98.018387
561.000000	97.792156
560.000000	97.606320
559.000000	97.490786
558.000000	97.395934
557.000000	97.241081
556.000000	97.030003
555.000000	96.837610
554.000000	96.684183
553.000000	96.527443
552.000000	96.389496
551.000000	96.353917
550.000000	96.403628
