PE IR       SUBTECH     SPECTRUM    ASCII       PEDS        4.00        
   -1
BH-1(1)15-16_001_1.asc
24/05/14
11:07:26.00
24/05/14
11:09:02.00
Administrator
?品 004 用? Administrator 日期 Tuesday, May 14 2024
550.000000
#HDR
-1
-1
#GR
cm-1
%T
1.0
0.0
4000.000000
-1.000000
3451
8
100.096500
69.838712
#DATA
4000.000000	99.514602
3999.000000	99.514524
3998.000000	99.514258
3997.000000	99.513433
3996.000000	99.511945
3995.000000	99.510206
3994.000000	99.508858
3993.000000	99.508187
3992.000000	99.508037
3991.000000	99.508053
3990.000000	99.508120
3989.000000	99.508356
3988.000000	99.508748
3987.000000	99.508978
3986.000000	99.508678
3985.000000	99.507698
3984.000000	99.506112
3983.000000	99.504152
3982.000000	99.502250
3981.000000	99.500980
3980.000000	99.500698
3979.000000	99.501294
3978.000000	99.502217
3977.000000	99.502830
3976.000000	99.502784
3975.000000	99.502074
3974.000000	99.500970
3973.000000	99.499884
3972.000000	99.499140
3971.000000	99.498816
3970.000000	99.498752
3969.000000	99.498638
3968.000000	99.498181
3967.000000	99.497373
3966.000000	99.496634
3965.000000	99.496441
3964.000000	99.496728
3963.000000	99.496939
3962.000000	99.496804
3961.000000	99.496768
3960.000000	99.497303
3959.000000	99.498006
3958.000000	99.497867
3957.000000	99.496315
3956.000000	99.493747
3955.000000	99.491066
3954.000000	99.488966
3953.000000	99.487552
3952.000000	99.486429
3951.000000	99.485193
3950.000000	99.483890
3949.000000	99.482993
3948.000000	99.482899
3947.000000	99.483581
3946.000000	99.484615
3945.000000	99.485501
3944.000000	99.486044
3943.000000	99.486543
3942.000000	99.487545
3941.000000	99.489122
3940.000000	99.490447
3939.000000	99.490480
3938.000000	99.489179
3937.000000	99.487636
3936.000000	99.486969
3935.000000	99.487170
3934.000000	99.487381
3933.000000	99.486993
3932.000000	99.486147
3931.000000	99.485399
3930.000000	99.485123
3929.000000	99.485344
3928.000000	99.485848
3927.000000	99.486236
3926.000000	99.486220
3925.000000	99.485894
3924.000000	99.485659
3923.000000	99.485688
3922.000000	99.485691
3921.000000	99.485380
3920.000000	99.484907
3919.000000	99.484614
3918.000000	99.484592
3917.000000	99.484720
3916.000000	99.484981
3915.000000	99.485400
3914.000000	99.485812
3913.000000	99.485957
3912.000000	99.485797
3911.000000	99.485424
3910.000000	99.485014
3909.000000	99.484788
3908.000000	99.485037
3907.000000	99.485795
3906.000000	99.486606
3905.000000	99.486713
3904.000000	99.485703
3903.000000	99.483950
3902.000000	99.482193
3901.000000	99.480860
3900.000000	99.480084
3899.000000	99.480077
3898.000000	99.480964
3897.000000	99.482423
3896.000000	99.483964
3895.000000	99.485560
3894.000000	99.487535
3893.000000	99.489482
3892.000000	99.490059
3891.000000	99.488484
3890.000000	99.486007
3889.000000	99.484566
3888.000000	99.484643
3887.000000	99.485192
3886.000000	99.484669
3885.000000	99.482501
3884.000000	99.479776
3883.000000	99.477817
3882.000000	99.477340
3881.000000	99.478580
3880.000000	99.480914
3879.000000	99.483402
3878.000000	99.485695
3877.000000	99.487664
3876.000000	99.489113
3875.000000	99.489753
3874.000000	99.489683
3873.000000	99.489599
3872.000000	99.489610
3871.000000	99.488755
3870.000000	99.486551
3869.000000	99.484401
3868.000000	99.484072
3867.000000	99.485174
3866.000000	99.486204
3865.000000	99.486759
3864.000000	99.487482
3863.000000	99.488633
3862.000000	99.489712
3861.000000	99.490190
3860.000000	99.490071
3859.000000	99.489473
3858.000000	99.488646
3857.000000	99.488030
3856.000000	99.488126
3855.000000	99.488876
3854.000000	99.489259
3853.000000	99.488698
3852.000000	99.488455
3851.000000	99.489189
3850.000000	99.489983
3849.000000	99.490316
3848.000000	99.490527
3847.000000	99.490981
3846.000000	99.491757
3845.000000	99.492738
3844.000000	99.493693
3843.000000	99.494453
3842.000000	99.495157
3841.000000	99.496019
3840.000000	99.497039
3839.000000	99.497993
3838.000000	99.498722
3837.000000	99.499297
3836.000000	99.499906
3835.000000	99.500607
3834.000000	99.501307
3833.000000	99.501897
3832.000000	99.502378
3831.000000	99.502830
3830.000000	99.503338
3829.000000	99.503924
3828.000000	99.504568
3827.000000	99.505226
3826.000000	99.505868
3825.000000	99.506487
3824.000000	99.507082
3823.000000	99.507640
3822.000000	99.508152
3821.000000	99.508621
3820.000000	99.509072
3819.000000	99.509530
3818.000000	99.510002
3817.000000	99.510481
3816.000000	99.510951
3815.000000	99.511404
3814.000000	99.511834
3813.000000	99.512231
3812.000000	99.512587
3811.000000	99.512910
3810.000000	99.513206
3809.000000	99.513465
3808.000000	99.513672
3807.000000	99.513826
3806.000000	99.513937
3805.000000	99.514013
3804.000000	99.514057
3803.000000	99.514068
3802.000000	99.514053
3801.000000	99.514026
3800.000000	99.514005
3799.000000	99.513990
3798.000000	99.513967
3797.000000	99.513923
3796.000000	99.513851
3795.000000	99.513751
3794.000000	99.513621
3793.000000	99.513464
3792.000000	99.513285
3791.000000	99.513100
3790.000000	99.512922
3789.000000	99.512761
3788.000000	99.512620
3787.000000	99.512481
3786.000000	99.512291
3785.000000	99.511990
3784.000000	99.511578
3783.000000	99.511115
3782.000000	99.510663
3781.000000	99.510244
3780.000000	99.509846
3779.000000	99.509488
3778.000000	99.509213
3777.000000	99.509003
3776.000000	99.508761
3775.000000	99.508398
3774.000000	99.507958
3773.000000	99.507563
3772.000000	99.507283
3771.000000	99.507096
3770.000000	99.506918
3769.000000	99.506691
3768.000000	99.506414
3767.000000	99.506045
3766.000000	99.505465
3765.000000	99.504621
3764.000000	99.503704
3763.000000	99.503037
3762.000000	99.502772
3761.000000	99.502889
3760.000000	99.503213
3759.000000	99.503193
3758.000000	99.502272
3757.000000	99.500597
3756.000000	99.499053
3755.000000	99.498022
3754.000000	99.496956
3753.000000	99.495647
3752.000000	99.495167
3751.000000	99.496282
3750.000000	99.497462
3749.000000	99.496909
3748.000000	99.495022
3747.000000	99.492872
3746.000000	99.490524
3745.000000	99.486897
3744.000000	99.481709
3743.000000	99.478310
3742.000000	99.477994
3741.000000	99.477379
3740.000000	99.475704
3739.000000	99.475758
3738.000000	99.478651
3737.000000	99.480999
3736.000000	99.478663
3735.000000	99.471963
3734.000000	99.465385
3733.000000	99.462213
3732.000000	99.462127
3731.000000	99.463539
3730.000000	99.464646
3729.000000	99.463453
3728.000000	99.459208
3727.000000	99.453510
3726.000000	99.448918
3725.000000	99.446339
3724.000000	99.443815
3723.000000	99.439362
3722.000000	99.433709
3721.000000	99.429174
3720.000000	99.426898
3719.000000	99.425642
3718.000000	99.423268
3717.000000	99.418715
3716.000000	99.412506
3715.000000	99.405123
3714.000000	99.397119
3713.000000	99.390416
3712.000000	99.386819
3711.000000	99.385270
3710.000000	99.382274
3709.000000	99.374889
3708.000000	99.363343
3707.000000	99.350692
3706.000000	99.340043
3705.000000	99.331549
3704.000000	99.322109
3703.000000	99.308273
3702.000000	99.289654
3701.000000	99.269992
3700.000000	99.254452
3699.000000	99.245286
3698.000000	99.241057
3697.000000	99.240060
3696.000000	99.242197
3695.000000	99.246786
3694.000000	99.250805
3693.000000	99.251870
3692.000000	99.251287
3691.000000	99.251355
3690.000000	99.250843
3689.000000	99.246323
3688.000000	99.239569
3687.000000	99.237391
3686.000000	99.241607
3685.000000	99.246453
3684.000000	99.246828
3683.000000	99.242498
3682.000000	99.234538
3681.000000	99.221887
3680.000000	99.203885
3679.000000	99.184358
3678.000000	99.167673
3677.000000	99.152223
3676.000000	99.130914
3675.000000	99.103648
3674.000000	99.082363
3673.000000	99.072363
3672.000000	99.066180
3671.000000	99.056561
3670.000000	99.040644
3669.000000	99.020998
3668.000000	99.003234
3667.000000	98.988249
3666.000000	98.973944
3665.000000	98.959084
3664.000000	98.942641
3663.000000	98.923249
3662.000000	98.900488
3661.000000	98.876331
3660.000000	98.854733
3659.000000	98.838405
3658.000000	98.825085
3657.000000	98.808460
3656.000000	98.784723
3655.000000	98.758884
3654.000000	98.737229
3653.000000	98.718916
3652.000000	98.699659
3651.000000	98.676933
3650.000000	98.650955
3649.000000	98.626008
3648.000000	98.608257
3647.000000	98.599975
3646.000000	98.598475
3645.000000	98.598160
3644.000000	98.593307
3643.000000	98.581068
3642.000000	98.563698
3641.000000	98.546789
3640.000000	98.534139
3639.000000	98.523706
3638.000000	98.510315
3637.000000	98.490914
3636.000000	98.465501
3635.000000	98.435513
3634.000000	98.403524
3633.000000	98.373794
3632.000000	98.349617
3631.000000	98.331362
3630.000000	98.316765
3629.000000	98.302116
3628.000000	98.289683
3627.000000	98.286494
3626.000000	98.289703
3625.000000	98.290474
3624.000000	98.285727
3623.000000	98.277999
3622.000000	98.271979
3621.000000	98.272580
3620.000000	98.282640
3619.000000	98.300150
3618.000000	98.320448
3617.000000	98.340906
3616.000000	98.361070
3615.000000	98.380508
3614.000000	98.397794
3613.000000	98.411603
3612.000000	98.422864
3611.000000	98.434602
3610.000000	98.448953
3609.000000	98.464602
3608.000000	98.477605
3607.000000	98.486315
3606.000000	98.494148
3605.000000	98.506467
3604.000000	98.525876
3603.000000	98.549667
3602.000000	98.571662
3601.000000	98.587642
3600.000000	98.598831
3599.000000	98.609096
3598.000000	98.619782
3597.000000	98.629564
3596.000000	98.636456
3595.000000	98.639374
3594.000000	98.638918
3593.000000	98.637976
3592.000000	98.639516
3591.000000	98.644693
3590.000000	98.652431
3589.000000	98.660343
3588.000000	98.666066
3587.000000	98.669308
3586.000000	98.671884
3585.000000	98.674547
3584.000000	98.676262
3583.000000	98.676977
3582.000000	98.678299
3581.000000	98.681956
3580.000000	98.688430
3579.000000	98.696849
3578.000000	98.705113
3577.000000	98.710835
3576.000000	98.712472
3575.000000	98.709898
3574.000000	98.704119
3573.000000	98.696609
3572.000000	98.688952
3571.000000	98.682540
3570.000000	98.678037
3569.000000	98.674558
3568.000000	98.670172
3567.000000	98.664149
3566.000000	98.658646
3565.000000	98.656284
3564.000000	98.657075
3563.000000	98.659527
3562.000000	98.662682
3561.000000	98.665908
3560.000000	98.668028
3559.000000	98.667806
3558.000000	98.665099
3557.000000	98.661118
3556.000000	98.657507
3555.000000	98.654838
3554.000000	98.652177
3553.000000	98.648380
3552.000000	98.643967
3551.000000	98.640855
3550.000000	98.639885
3549.000000	98.639478
3548.000000	98.637523
3547.000000	98.633997
3546.000000	98.630881
3545.000000	98.629536
3544.000000	98.629029
3543.000000	98.627471
3542.000000	98.624398
3541.000000	98.621061
3540.000000	98.618913
3539.000000	98.618486
3538.000000	98.619652
3537.000000	98.621842
3536.000000	98.623741
3535.000000	98.623772
3534.000000	98.621555
3533.000000	98.618668
3532.000000	98.617256
3531.000000	98.617967
3530.000000	98.619293
3529.000000	98.619151
3528.000000	98.616883
3527.000000	98.613576
3526.000000	98.610787
3525.000000	98.609533
3524.000000	98.610234
3523.000000	98.612693
3522.000000	98.615872
3521.000000	98.618310
3520.000000	98.619267
3519.000000	98.619193
3518.000000	98.618909
3517.000000	98.618430
3516.000000	98.617007
3515.000000	98.614327
3514.000000	98.611157
3513.000000	98.608556
3512.000000	98.606683
3511.000000	98.604815
3510.000000	98.602358
3509.000000	98.599486
3508.000000	98.596720
3507.000000	98.594265
3506.000000	98.591918
3505.000000	98.589528
3504.000000	98.587252
3503.000000	98.585470
3502.000000	98.584558
3501.000000	98.584605
3500.000000	98.585069
3499.000000	98.584756
3498.000000	98.582587
3497.000000	98.578696
3496.000000	98.574758
3495.000000	98.572755
3494.000000	98.573283
3493.000000	98.575092
3492.000000	98.576142
3491.000000	98.575351
3490.000000	98.573251
3489.000000	98.571225
3488.000000	98.570248
3487.000000	98.570224
3486.000000	98.570232
3485.000000	98.569340
3484.000000	98.567285
3483.000000	98.564513
3482.000000	98.561595
3481.000000	98.558572
3480.000000	98.555054
3479.000000	98.551025
3478.000000	98.547264
3477.000000	98.544689
3476.000000	98.543402
3475.000000	98.542568
3474.000000	98.541219
3473.000000	98.539038
3472.000000	98.536296
3471.000000	98.533305
3470.000000	98.530181
3469.000000	98.527007
3468.000000	98.523962
3467.000000	98.521225
3466.000000	98.518865
3465.000000	98.516802
3464.000000	98.514768
3463.000000	98.512337
3462.000000	98.509200
3461.000000	98.505514
3460.000000	98.501914
3459.000000	98.499020
3458.000000	98.496880
3457.000000	98.494953
3456.000000	98.492576
3455.000000	98.489499
3454.000000	98.486003
3453.000000	98.482618
3452.000000	98.479776
3451.000000	98.477563
3450.000000	98.475616
3449.000000	98.473381
3448.000000	98.470623
3447.000000	98.467663
3446.000000	98.464955
3445.000000	98.462484
3444.000000	98.459756
3443.000000	98.456362
3442.000000	98.452378
3441.000000	98.448266
3440.000000	98.444542
3439.000000	98.441546
3438.000000	98.439305
3437.000000	98.437375
3436.000000	98.435054
3435.000000	98.432112
3434.000000	98.429199
3433.000000	98.427122
3432.000000	98.425714
3431.000000	98.423919
3430.000000	98.421129
3429.000000	98.418073
3428.000000	98.415917
3427.000000	98.414680
3426.000000	98.413057
3425.000000	98.409936
3424.000000	98.405721
3423.000000	98.401937
3422.000000	98.399765
3421.000000	98.399344
3420.000000	98.400155
3419.000000	98.401434
3418.000000	98.402203
3417.000000	98.401460
3416.000000	98.398852
3415.000000	98.395113
3414.000000	98.391546
3413.000000	98.389064
3412.000000	98.387898
3411.000000	98.387976
3410.000000	98.389041
3409.000000	98.390287
3408.000000	98.390409
3407.000000	98.388548
3406.000000	98.385120
3405.000000	98.381466
3404.000000	98.378671
3403.000000	98.376888
3402.000000	98.375645
3401.000000	98.374259
3400.000000	98.371892
3399.000000	98.367921
3398.000000	98.362821
3397.000000	98.358350
3396.000000	98.356207
3395.000000	98.356660
3394.000000	98.358839
3393.000000	98.361986
3392.000000	98.365807
3391.000000	98.369749
3390.000000	98.372783
3389.000000	98.374276
3388.000000	98.374578
3387.000000	98.374528
3386.000000	98.374791
3385.000000	98.375829
3384.000000	98.377934
3383.000000	98.380779
3382.000000	98.383187
3381.000000	98.383936
3380.000000	98.382849
3379.000000	98.381027
3378.000000	98.380063
3377.000000	98.380977
3376.000000	98.383608
3375.000000	98.386671
3374.000000	98.388595
3373.000000	98.388730
3372.000000	98.387835
3371.000000	98.387400
3370.000000	98.388512
3369.000000	98.391320
3368.000000	98.395222
3367.000000	98.399234
3366.000000	98.402411
3365.000000	98.404335
3364.000000	98.405291
3363.000000	98.405890
3362.000000	98.406517
3361.000000	98.407261
3360.000000	98.408220
3359.000000	98.409586
3358.000000	98.411422
3357.000000	98.413566
3356.000000	98.415768
3355.000000	98.417838
3354.000000	98.419690
3353.000000	98.421406
3352.000000	98.423245
3351.000000	98.425449
3350.000000	98.427963
3349.000000	98.430333
3348.000000	98.432058
3347.000000	98.433075
3346.000000	98.433820
3345.000000	98.434760
3344.000000	98.436019
3343.000000	98.437513
3342.000000	98.439245
3341.000000	98.441360
3340.000000	98.444005
3339.000000	98.447196
3338.000000	98.450622
3337.000000	98.453587
3336.000000	98.455460
3335.000000	98.456349
3334.000000	98.457264
3333.000000	98.459247
3332.000000	98.462379
3331.000000	98.465748
3330.000000	98.468389
3329.000000	98.470052
3328.000000	98.471034
3327.000000	98.471674
3326.000000	98.472211
3325.000000	98.472970
3324.000000	98.474374
3323.000000	98.476623
3322.000000	98.479493
3321.000000	98.482570
3320.000000	98.485584
3319.000000	98.488359
3318.000000	98.490543
3317.000000	98.491707
3316.000000	98.491797
3315.000000	98.491340
3314.000000	98.491004
3313.000000	98.491043
3312.000000	98.491324
3311.000000	98.491783
3310.000000	98.492647
3309.000000	98.494172
3308.000000	98.496303
3307.000000	98.498726
3306.000000	98.501239
3305.000000	98.503956
3304.000000	98.507048
3303.000000	98.510307
3302.000000	98.513100
3301.000000	98.514924
3300.000000	98.516002
3299.000000	98.517139
3298.000000	98.518906
3297.000000	98.521059
3296.000000	98.522913
3295.000000	98.524187
3294.000000	98.525351
3293.000000	98.527123
3292.000000	98.529742
3291.000000	98.532815
3290.000000	98.535678
3289.000000	98.537896
3288.000000	98.539470
3287.000000	98.540740
3286.000000	98.542192
3285.000000	98.544179
3284.000000	98.546732
3283.000000	98.549584
3282.000000	98.552382
3281.000000	98.554949
3280.000000	98.557353
3279.000000	98.559747
3278.000000	98.562179
3277.000000	98.564558
3276.000000	98.566799
3275.000000	98.568971
3274.000000	98.571268
3273.000000	98.573839
3272.000000	98.576633
3271.000000	98.579415
3270.000000	98.581942
3269.000000	98.584148
3268.000000	98.586190
3267.000000	98.588347
3266.000000	98.590844
3265.000000	98.593738
3264.000000	98.596922
3263.000000	98.600204
3262.000000	98.603391
3261.000000	98.606304
3260.000000	98.608731
3259.000000	98.610471
3258.000000	98.611541
3257.000000	98.612364
3256.000000	98.613626
3255.000000	98.615799
3254.000000	98.618845
3253.000000	98.622407
3252.000000	98.626208
3251.000000	98.630108
3250.000000	98.633880
3249.000000	98.637280
3248.000000	98.640371
3247.000000	98.643408
3246.000000	98.646351
3245.000000	98.648858
3244.000000	98.650958
3243.000000	98.653327
3242.000000	98.656556
3241.000000	98.660349
3240.000000	98.663812
3239.000000	98.666460
3238.000000	98.668594
3237.000000	98.670713
3236.000000	98.672920
3235.000000	98.675084
3234.000000	98.677322
3233.000000	98.680055
3232.000000	98.683596
3231.000000	98.687756
3230.000000	98.691840
3229.000000	98.695142
3228.000000	98.697547
3227.000000	98.699609
3226.000000	98.701925
3225.000000	98.704524
3224.000000	98.707059
3223.000000	98.709502
3222.000000	98.712322
3221.000000	98.715963
3220.000000	98.720437
3219.000000	98.725443
3218.000000	98.730611
3217.000000	98.735532
3216.000000	98.739796
3215.000000	98.743271
3214.000000	98.746151
3213.000000	98.748603
3212.000000	98.750580
3211.000000	98.752025
3210.000000	98.753170
3209.000000	98.754560
3208.000000	98.756797
3207.000000	98.760231
3206.000000	98.764731
3205.000000	98.769622
3204.000000	98.773996
3203.000000	98.777257
3202.000000	98.779407
3201.000000	98.780955
3200.000000	98.782642
3199.000000	98.785052
3198.000000	98.788292
3197.000000	98.792032
3196.000000	98.795964
3195.000000	98.800145
3194.000000	98.804678
3193.000000	98.809163
3192.000000	98.812880
3191.000000	98.815585
3190.000000	98.817764
3189.000000	98.819997
3188.000000	98.822286
3187.000000	98.824296
3186.000000	98.825987
3185.000000	98.827733
3184.000000	98.829940
3183.000000	98.832755
3182.000000	98.836089
3181.000000	98.839755
3180.000000	98.843604
3179.000000	98.847536
3178.000000	98.851333
3177.000000	98.854615
3176.000000	98.857198
3175.000000	98.859484
3174.000000	98.862237
3173.000000	98.865799
3172.000000	98.869750
3171.000000	98.873351
3170.000000	98.876269
3169.000000	98.878710
3168.000000	98.881064
3167.000000	98.883569
3166.000000	98.886326
3165.000000	98.889409
3164.000000	98.892850
3163.000000	98.896547
3162.000000	98.900245
3161.000000	98.903657
3160.000000	98.906712
3159.000000	98.909707
3158.000000	98.913013
3157.000000	98.916553
3156.000000	98.919773
3155.000000	98.922310
3154.000000	98.924496
3153.000000	98.927002
3152.000000	98.930077
3151.000000	98.933391
3150.000000	98.936494
3149.000000	98.939152
3148.000000	98.941300
3147.000000	98.943018
3146.000000	98.944645
3145.000000	98.946670
3144.000000	98.949357
3143.000000	98.952533
3142.000000	98.955755
3141.000000	98.958666
3140.000000	98.961217
3139.000000	98.963625
3138.000000	98.966193
3137.000000	98.969028
3136.000000	98.971901
3135.000000	98.974483
3134.000000	98.976743
3133.000000	98.978976
3132.000000	98.981408
3131.000000	98.983915
3130.000000	98.986249
3129.000000	98.988399
3128.000000	98.990628
3127.000000	98.993222
3126.000000	98.996213
3125.000000	98.999285
3124.000000	99.001954
3123.000000	99.003963
3122.000000	99.005494
3121.000000	99.006926
3120.000000	99.008418
3119.000000	99.009886
3118.000000	99.011318
3117.000000	99.012846
3116.000000	99.014507
3115.000000	99.016260
3114.000000	99.018320
3113.000000	99.021183
3112.000000	99.025087
3111.000000	99.029570
3110.000000	99.033685
3109.000000	99.036646
3108.000000	99.038241
3107.000000	99.038850
3106.000000	99.039280
3105.000000	99.040321
3104.000000	99.042185
3103.000000	99.044396
3102.000000	99.046248
3101.000000	99.047501
3100.000000	99.048609
3099.000000	99.050317
3098.000000	99.053055
3097.000000	99.056581
3096.000000	99.060116
3095.000000	99.062971
3094.000000	99.065203
3093.000000	99.067493
3092.000000	99.070282
3091.000000	99.073193
3090.000000	99.075530
3089.000000	99.077176
3088.000000	99.078683
3087.000000	99.080550
3086.000000	99.082680
3085.000000	99.084643
3084.000000	99.086180
3083.000000	99.087344
3082.000000	99.088350
3081.000000	99.089449
3080.000000	99.090834
3079.000000	99.092509
3078.000000	99.094271
3077.000000	99.095883
3076.000000	99.097290
3075.000000	99.098661
3074.000000	99.100290
3073.000000	99.102402
3072.000000	99.104959
3071.000000	99.107559
3070.000000	99.109644
3069.000000	99.110968
3068.000000	99.111802
3067.000000	99.112662
3066.000000	99.113846
3065.000000	99.115315
3064.000000	99.116949
3063.000000	99.118718
3062.000000	99.120535
3061.000000	99.122101
3060.000000	99.123069
3059.000000	99.123366
3058.000000	99.123387
3057.000000	99.123813
3056.000000	99.125108
3055.000000	99.127205
3054.000000	99.129557
3053.000000	99.131603
3052.000000	99.133214
3051.000000	99.134603
3050.000000	99.135899
3049.000000	99.136938
3048.000000	99.137555
3047.000000	99.137941
3046.000000	99.138587
3045.000000	99.139833
3044.000000	99.141600
3043.000000	99.143546
3042.000000	99.145439
3041.000000	99.147292
3040.000000	99.149155
3039.000000	99.150864
3038.000000	99.152052
3037.000000	99.152406
3036.000000	99.151918
3035.000000	99.150948
3034.000000	99.150116
3033.000000	99.150088
3032.000000	99.151283
3031.000000	99.153562
3030.000000	99.156158
3029.000000	99.158217
3028.000000	99.159544
3027.000000	99.160654
3026.000000	99.161963
3025.000000	99.163082
3024.000000	99.163219
3023.000000	99.162224
3022.000000	99.160947
3021.000000	99.160444
3020.000000	99.160952
3019.000000	99.161714
3018.000000	99.161658
3017.000000	99.160304
3016.000000	99.158264
3015.000000	99.156873
3014.000000	99.157140
3013.000000	99.158863
3012.000000	99.160741
3011.000000	99.161485
3010.000000	99.160926
3009.000000	99.160220
3008.000000	99.160885
3007.000000	99.163299
3006.000000	99.166043
3005.000000	99.167119
3004.000000	99.166051
3003.000000	99.164346
3002.000000	99.163645
3001.000000	99.163969
3000.000000	99.164301
2999.000000	99.164168
2998.000000	99.163661
2997.000000	99.162312
2996.000000	99.159286
2995.000000	99.154857
2994.000000	99.150583
2993.000000	99.147517
2992.000000	99.145183
2991.000000	99.142888
2990.000000	99.141093
2989.000000	99.140670
2988.000000	99.141431
2987.000000	99.142313
2986.000000	99.142612
2985.000000	99.142182
2984.000000	99.140684
2983.000000	99.137750
2982.000000	99.134041
2981.000000	99.131155
2980.000000	99.129753
2979.000000	99.128266
2978.000000	99.124275
2977.000000	99.117399
2976.000000	99.110479
2975.000000	99.107542
2974.000000	99.110687
2973.000000	99.119029
2972.000000	99.130104
2971.000000	99.141734
2970.000000	99.152466
2969.000000	99.161057
2968.000000	99.166705
2967.000000	99.169937
2966.000000	99.172430
2965.000000	99.175463
2964.000000	99.178988
2963.000000	99.182485
2962.000000	99.186034
2961.000000	99.189895
2960.000000	99.193638
2959.000000	99.196654
2958.000000	99.199305
2957.000000	99.202370
2956.000000	99.205165
2955.000000	99.205471
2954.000000	99.202322
2953.000000	99.198257
2952.000000	99.197504
2951.000000	99.201829
2950.000000	99.208997
2949.000000	99.215234
2948.000000	99.218582
2947.000000	99.219619
2946.000000	99.219935
2945.000000	99.220757
2944.000000	99.222474
2943.000000	99.224390
2942.000000	99.225009
2941.000000	99.223566
2940.000000	99.221492
2939.000000	99.221483
2938.000000	99.224806
2937.000000	99.230347
2936.000000	99.236559
2935.000000	99.243304
2934.000000	99.250871
2933.000000	99.258189
2932.000000	99.263466
2931.000000	99.266460
2930.000000	99.268851
2929.000000	99.272146
2928.000000	99.276103
2927.000000	99.279513
2926.000000	99.281654
2925.000000	99.282559
2924.000000	99.282662
2923.000000	99.282673
2922.000000	99.283268
2921.000000	99.284501
2920.000000	99.286015
2919.000000	99.288081
2918.000000	99.291578
2917.000000	99.296223
2916.000000	99.299442
2915.000000	99.298117
2914.000000	99.291539
2913.000000	99.282468
2912.000000	99.275291
2911.000000	99.272808
2910.000000	99.274677
2909.000000	99.278299
2908.000000	99.281043
2907.000000	99.281946
2906.000000	99.281511
2905.000000	99.280365
2904.000000	99.278621
2903.000000	99.276462
2902.000000	99.274610
2901.000000	99.273758
2900.000000	99.273842
2899.000000	99.274245
2898.000000	99.274475
2897.000000	99.274510
2896.000000	99.274672
2895.000000	99.275398
2894.000000	99.276766
2893.000000	99.277988
2892.000000	99.277708
2891.000000	99.275231
2890.000000	99.271330
2889.000000	99.267582
2888.000000	99.265158
2887.000000	99.264527
2886.000000	99.265859
2885.000000	99.268877
2884.000000	99.272227
2883.000000	99.273771
2882.000000	99.272177
2881.000000	99.268300
2880.000000	99.264741
2879.000000	99.263688
2878.000000	99.265157
2877.000000	99.267476
2876.000000	99.269647
2875.000000	99.272788
2874.000000	99.278651
2873.000000	99.287023
2872.000000	99.295381
2871.000000	99.301401
2870.000000	99.305085
2869.000000	99.307941
2868.000000	99.310949
2867.000000	99.313988
2866.000000	99.316632
2865.000000	99.318616
2864.000000	99.319795
2863.000000	99.320373
2862.000000	99.321136
2861.000000	99.322902
2860.000000	99.325831
2859.000000	99.329674
2858.000000	99.334352
2857.000000	99.339702
2856.000000	99.344908
2855.000000	99.348978
2854.000000	99.351849
2853.000000	99.354503
2852.000000	99.357802
2851.000000	99.361379
2850.000000	99.363683
2849.000000	99.363044
2848.000000	99.359077
2847.000000	99.353504
2846.000000	99.349309
2845.000000	99.348320
2844.000000	99.349655
2843.000000	99.350877
2842.000000	99.350555
2841.000000	99.349415
2840.000000	99.349168
2839.000000	99.350695
2838.000000	99.353345
2837.000000	99.355544
2836.000000	99.356082
2835.000000	99.355249
2834.000000	99.354750
2833.000000	99.356123
2832.000000	99.359132
2831.000000	99.362033
2830.000000	99.363472
2829.000000	99.363642
2828.000000	99.363439
2827.000000	99.363114
2826.000000	99.362342
2825.000000	99.361281
2824.000000	99.360800
2823.000000	99.361566
2822.000000	99.363438
2821.000000	99.365868
2820.000000	99.368470
2819.000000	99.370935
2818.000000	99.372738
2817.000000	99.373430
2816.000000	99.373179
2815.000000	99.372731
2814.000000	99.372755
2813.000000	99.373380
2812.000000	99.374398
2811.000000	99.375619
2810.000000	99.376916
2809.000000	99.378120
2808.000000	99.379092
2807.000000	99.379841
2806.000000	99.380485
2805.000000	99.381146
2804.000000	99.381863
2803.000000	99.382605
2802.000000	99.383350
2801.000000	99.384138
2800.000000	99.385083
2799.000000	99.386317
2798.000000	99.387848
2797.000000	99.389411
2796.000000	99.390576
2795.000000	99.391133
2794.000000	99.391290
2793.000000	99.391488
2792.000000	99.391981
2791.000000	99.392734
2790.000000	99.393698
2789.000000	99.394927
2788.000000	99.396418
2787.000000	99.398041
2786.000000	99.399666
2785.000000	99.401218
2784.000000	99.402579
2783.000000	99.403576
2782.000000	99.404148
2781.000000	99.404428
2780.000000	99.404627
2779.000000	99.404906
2778.000000	99.405384
2777.000000	99.406157
2776.000000	99.407215
2775.000000	99.408394
2774.000000	99.409498
2773.000000	99.410474
2772.000000	99.411413
2771.000000	99.412437
2770.000000	99.413596
2769.000000	99.414851
2768.000000	99.416100
2767.000000	99.417239
2766.000000	99.418209
2765.000000	99.418988
2764.000000	99.419561
2763.000000	99.419984
2762.000000	99.420435
2761.000000	99.421121
2760.000000	99.422070
2759.000000	99.423095
2758.000000	99.423996
2757.000000	99.424760
2756.000000	99.425503
2755.000000	99.426276
2754.000000	99.427022
2753.000000	99.427699
2752.000000	99.428364
2751.000000	99.429092
2750.000000	99.429892
2749.000000	99.430718
2748.000000	99.431507
2747.000000	99.432207
2746.000000	99.432800
2745.000000	99.433315
2744.000000	99.433822
2743.000000	99.434380
2742.000000	99.434994
2741.000000	99.435636
2740.000000	99.436278
2739.000000	99.436905
2738.000000	99.437510
2737.000000	99.438080
2736.000000	99.438608
2735.000000	99.439099
2734.000000	99.439574
2733.000000	99.440043
2732.000000	99.440509
2731.000000	99.440973
2730.000000	99.441434
2729.000000	99.441889
2728.000000	99.442338
2727.000000	99.442780
2726.000000	99.443218
2725.000000	99.443656
2724.000000	99.444101
2723.000000	99.444557
2722.000000	99.445026
2721.000000	99.445510
2720.000000	99.446009
2719.000000	99.446522
2718.000000	99.447044
2717.000000	99.447570
2716.000000	99.448088
2715.000000	99.448593
2714.000000	99.449083
2713.000000	99.449563
2712.000000	99.450036
2711.000000	99.450503
2710.000000	99.450966
2709.000000	99.451430
2708.000000	99.451904
2707.000000	99.452395
2706.000000	99.452901
2705.000000	99.453413
2704.000000	99.453924
2703.000000	99.454431
2702.000000	99.454929
2701.000000	99.455417
2700.000000	99.455898
2699.000000	99.456376
2698.000000	99.456855
2697.000000	99.457336
2696.000000	99.457816
2695.000000	99.458295
2694.000000	99.458771
2693.000000	99.459237
2692.000000	99.459686
2691.000000	99.460110
2690.000000	99.460511
2689.000000	99.460900
2688.000000	99.461287
2687.000000	99.461674
2686.000000	99.462054
2685.000000	99.462423
2684.000000	99.462776
2683.000000	99.463115
2682.000000	99.463440
2681.000000	99.463744
2680.000000	99.464019
2679.000000	99.464253
2678.000000	99.464444
2677.000000	99.464595
2676.000000	99.464712
2675.000000	99.464799
2674.000000	99.464860
2673.000000	99.464903
2672.000000	99.464934
2671.000000	99.464954
2670.000000	99.464962
2669.000000	99.464954
2668.000000	99.464927
2667.000000	99.464878
2666.000000	99.464801
2665.000000	99.464696
2664.000000	99.464566
2663.000000	99.464420
2662.000000	99.464258
2661.000000	99.464076
2660.000000	99.463872
2659.000000	99.463646
2658.000000	99.463403
2657.000000	99.463151
2656.000000	99.462892
2655.000000	99.462627
2654.000000	99.462355
2653.000000	99.462072
2652.000000	99.461784
2651.000000	99.461506
2650.000000	99.461259
2649.000000	99.461055
2648.000000	99.460890
2647.000000	99.460740
2646.000000	99.460578
2645.000000	99.460391
2644.000000	99.460187
2643.000000	99.459987
2642.000000	99.459807
2641.000000	99.459649
2640.000000	99.459502
2639.000000	99.459359
2638.000000	99.459219
2637.000000	99.459091
2636.000000	99.458981
2635.000000	99.458892
2634.000000	99.458824
2633.000000	99.458779
2632.000000	99.458760
2631.000000	99.458768
2630.000000	99.458797
2629.000000	99.458838
2628.000000	99.458885
2627.000000	99.458939
2626.000000	99.459002
2625.000000	99.459080
2624.000000	99.459173
2623.000000	99.459277
2622.000000	99.459400
2621.000000	99.459537
2620.000000	99.459659
2619.000000	99.459750
2618.000000	99.459829
2617.000000	99.459930
2616.000000	99.460104
2615.000000	99.460441
2614.000000	99.460967
2613.000000	99.461549
2612.000000	99.462088
2611.000000	99.462828
2610.000000	99.464143
2609.000000	99.465814
2608.000000	99.466932
2607.000000	99.466792
2606.000000	99.465612
2605.000000	99.464371
2604.000000	99.463777
2603.000000	99.463957
2602.000000	99.464750
2601.000000	99.465786
2600.000000	99.466476
2599.000000	99.466312
2598.000000	99.465316
2597.000000	99.463914
2596.000000	99.462597
2595.000000	99.461717
2594.000000	99.461479
2593.000000	99.461978
2592.000000	99.463105
2591.000000	99.464433
2590.000000	99.465307
2589.000000	99.465247
2588.000000	99.464345
2587.000000	99.463190
2586.000000	99.462309
2585.000000	99.461775
2584.000000	99.461448
2583.000000	99.461384
2582.000000	99.461744
2581.000000	99.462412
2580.000000	99.463017
2579.000000	99.463343
2578.000000	99.463531
2577.000000	99.463851
2576.000000	99.464416
2575.000000	99.465112
2574.000000	99.465674
2573.000000	99.465888
2572.000000	99.465785
2571.000000	99.465618
2570.000000	99.465563
2569.000000	99.465507
2568.000000	99.465220
2567.000000	99.464641
2566.000000	99.463897
2565.000000	99.463176
2564.000000	99.462726
2563.000000	99.462786
2562.000000	99.463402
2561.000000	99.464298
2560.000000	99.465026
2559.000000	99.465381
2558.000000	99.465467
2557.000000	99.465461
2556.000000	99.465470
2555.000000	99.465554
2554.000000	99.465786
2553.000000	99.466188
2552.000000	99.466681
2551.000000	99.467138
2550.000000	99.467489
2549.000000	99.467727
2548.000000	99.467883
2547.000000	99.468031
2546.000000	99.468285
2545.000000	99.468714
2544.000000	99.469274
2543.000000	99.469836
2542.000000	99.470297
2541.000000	99.470651
2540.000000	99.470962
2539.000000	99.471291
2538.000000	99.471662
2537.000000	99.472049
2536.000000	99.472403
2535.000000	99.472671
2534.000000	99.472843
2533.000000	99.473022
2532.000000	99.473388
2531.000000	99.474039
2530.000000	99.474864
2529.000000	99.475594
2528.000000	99.476075
2527.000000	99.476407
2526.000000	99.476823
2525.000000	99.477439
2524.000000	99.478197
2523.000000	99.479002
2522.000000	99.479792
2521.000000	99.480448
2520.000000	99.480826
2519.000000	99.480949
2518.000000	99.481032
2517.000000	99.481263
2516.000000	99.481689
2515.000000	99.482287
2514.000000	99.482978
2513.000000	99.483562
2512.000000	99.483893
2511.000000	99.484155
2510.000000	99.484706
2509.000000	99.485519
2508.000000	99.486092
2507.000000	99.486094
2506.000000	99.485786
2505.000000	99.485625
2504.000000	99.485714
2503.000000	99.485889
2502.000000	99.486059
2501.000000	99.486212
2500.000000	99.486226
2499.000000	99.485957
2498.000000	99.485474
2497.000000	99.485057
2496.000000	99.484945
2495.000000	99.485166
2494.000000	99.485585
2493.000000	99.486052
2492.000000	99.486518
2491.000000	99.487063
2490.000000	99.487719
2489.000000	99.488281
2488.000000	99.488449
2487.000000	99.488176
2486.000000	99.487737
2485.000000	99.487467
2484.000000	99.487446
2483.000000	99.487576
2482.000000	99.487796
2481.000000	99.488103
2480.000000	99.488421
2479.000000	99.488603
2478.000000	99.488579
2477.000000	99.488433
2476.000000	99.488305
2475.000000	99.488268
2474.000000	99.488303
2473.000000	99.488362
2472.000000	99.488411
2471.000000	99.488433
2470.000000	99.488445
2469.000000	99.488515
2468.000000	99.488714
2467.000000	99.489036
2466.000000	99.489365
2465.000000	99.489567
2464.000000	99.489615
2463.000000	99.489613
2462.000000	99.489676
2461.000000	99.489787
2460.000000	99.489848
2459.000000	99.489876
2458.000000	99.490033
2457.000000	99.490413
2456.000000	99.490928
2455.000000	99.491390
2454.000000	99.491694
2453.000000	99.491847
2452.000000	99.491911
2451.000000	99.491993
2450.000000	99.492207
2449.000000	99.492597
2448.000000	99.493093
2447.000000	99.493585
2446.000000	99.494036
2445.000000	99.494450
2444.000000	99.494796
2443.000000	99.495070
2442.000000	99.495368
2441.000000	99.495803
2440.000000	99.496330
2439.000000	99.496794
2438.000000	99.497133
2437.000000	99.497431
2436.000000	99.497737
2435.000000	99.497974
2434.000000	99.498077
2433.000000	99.498124
2432.000000	99.498280
2431.000000	99.498644
2430.000000	99.499151
2429.000000	99.499602
2428.000000	99.499830
2427.000000	99.499885
2426.000000	99.500023
2425.000000	99.500444
2424.000000	99.501100
2423.000000	99.501811
2422.000000	99.502480
2421.000000	99.503082
2420.000000	99.503557
2419.000000	99.503883
2418.000000	99.504179
2417.000000	99.504535
2416.000000	99.504830
2415.000000	99.504928
2414.000000	99.504991
2413.000000	99.505303
2412.000000	99.505834
2411.000000	99.506289
2410.000000	99.506660
2409.000000	99.507288
2408.000000	99.508298
2407.000000	99.509329
2406.000000	99.509991
2405.000000	99.510354
2404.000000	99.510747
2403.000000	99.511326
2402.000000	99.511958
2401.000000	99.512484
2400.000000	99.512912
2399.000000	99.513335
2398.000000	99.513791
2397.000000	99.514257
2396.000000	99.514718
2395.000000	99.515188
2394.000000	99.515676
2393.000000	99.516174
2392.000000	99.516676
2391.000000	99.517181
2390.000000	99.517691
2389.000000	99.518207
2388.000000	99.518728
2387.000000	99.519249
2386.000000	99.519763
2385.000000	99.520265
2384.000000	99.520749
2383.000000	99.521215
2382.000000	99.521667
2381.000000	99.522114
2380.000000	99.522562
2379.000000	99.523016
2378.000000	99.523480
2377.000000	99.523953
2376.000000	99.524428
2375.000000	99.524895
2374.000000	99.525342
2373.000000	99.525767
2372.000000	99.526173
2371.000000	99.526564
2370.000000	99.526941
2369.000000	99.527302
2368.000000	99.527648
2367.000000	99.527979
2366.000000	99.528302
2365.000000	99.528623
2364.000000	99.528942
2363.000000	99.529253
2362.000000	99.529547
2361.000000	99.529816
2360.000000	99.530053
2359.000000	99.530266
2358.000000	99.530483
2357.000000	99.530719
2356.000000	99.530972
2355.000000	99.531246
2354.000000	99.531521
2353.000000	99.531742
2352.000000	99.531871
2351.000000	99.531965
2350.000000	99.532153
2349.000000	99.532481
2348.000000	99.532846
2347.000000	99.532967
2346.000000	99.532645
2345.000000	99.532037
2344.000000	99.531485
2343.000000	99.531321
2342.000000	99.531739
2341.000000	99.532884
2340.000000	99.534502
2339.000000	99.535973
2338.000000	99.536779
2337.000000	99.536831
2336.000000	99.536245
2335.000000	99.534939
2334.000000	99.532764
2333.000000	99.530212
2332.000000	99.528379
2331.000000	99.527884
2330.000000	99.528477
2329.000000	99.529276
2328.000000	99.529867
2327.000000	99.530092
2326.000000	99.529969
2325.000000	99.529545
2324.000000	99.528680
2323.000000	99.527361
2322.000000	99.525799
2321.000000	99.524648
2320.000000	99.524076
2319.000000	99.523703
2318.000000	99.523527
2317.000000	99.524334
2316.000000	99.526635
2315.000000	99.529369
2314.000000	99.530918
2313.000000	99.530696
2312.000000	99.529408
2311.000000	99.527649
2310.000000	99.525595
2309.000000	99.523607
2308.000000	99.522232
2307.000000	99.521186
2306.000000	99.519389
2305.000000	99.516261
2304.000000	99.512390
2303.000000	99.508880
2302.000000	99.506510
2301.000000	99.505538
2300.000000	99.505633
2299.000000	99.505732
2298.000000	99.504834
2297.000000	99.502996
2296.000000	99.501320
2295.000000	99.500645
2294.000000	99.500863
2293.000000	99.501347
2292.000000	99.501547
2291.000000	99.501045
2290.000000	99.499771
2289.000000	99.498469
2288.000000	99.498231
2287.000000	99.499176
2286.000000	99.500022
2285.000000	99.499489
2284.000000	99.497675
2283.000000	99.495682
2282.000000	99.494208
2281.000000	99.493057
2280.000000	99.491872
2279.000000	99.490732
2278.000000	99.489906
2277.000000	99.489416
2276.000000	99.489043
2275.000000	99.488541
2274.000000	99.487810
2273.000000	99.487000
2272.000000	99.486427
2271.000000	99.486186
2270.000000	99.485923
2269.000000	99.485230
2268.000000	99.484266
2267.000000	99.483727
2266.000000	99.484121
2265.000000	99.485255
2264.000000	99.486451
2263.000000	99.487179
2262.000000	99.487268
2261.000000	99.486712
2260.000000	99.485648
2259.000000	99.484454
2258.000000	99.483595
2257.000000	99.483227
2256.000000	99.483097
2255.000000	99.482907
2254.000000	99.482641
2253.000000	99.482415
2252.000000	99.482166
2251.000000	99.481677
2250.000000	99.480932
2249.000000	99.480256
2248.000000	99.480004
2247.000000	99.480184
2246.000000	99.480494
2245.000000	99.480635
2244.000000	99.480494
2243.000000	99.480064
2242.000000	99.479342
2241.000000	99.478418
2240.000000	99.477559
2239.000000	99.477092
2238.000000	99.477163
2237.000000	99.477622
2236.000000	99.478137
2235.000000	99.478476
2234.000000	99.478700
2233.000000	99.479055
2232.000000	99.479650
2231.000000	99.480249
2230.000000	99.480497
2229.000000	99.480285
2228.000000	99.479785
2227.000000	99.479146
2226.000000	99.478327
2225.000000	99.477307
2224.000000	99.476328
2223.000000	99.475798
2222.000000	99.475925
2221.000000	99.476482
2220.000000	99.476863
2219.000000	99.476471
2218.000000	99.475146
2217.000000	99.473380
2216.000000	99.472058
2215.000000	99.471665
2214.000000	99.471862
2213.000000	99.471870
2212.000000	99.471375
2211.000000	99.470818
2210.000000	99.470747
2209.000000	99.471179
2208.000000	99.471689
2207.000000	99.471938
2206.000000	99.471916
2205.000000	99.471741
2204.000000	99.471442
2203.000000	99.470971
2202.000000	99.470354
2201.000000	99.469787
2200.000000	99.469546
2199.000000	99.469751
2198.000000	99.470214
2197.000000	99.470661
2196.000000	99.471114
2195.000000	99.471830
2194.000000	99.472809
2193.000000	99.473532
2192.000000	99.473391
2191.000000	99.472305
2190.000000	99.470812
2189.000000	99.469617
2188.000000	99.469063
2187.000000	99.469071
2186.000000	99.469378
2185.000000	99.469798
2184.000000	99.470342
2183.000000	99.471105
2182.000000	99.472056
2181.000000	99.473021
2180.000000	99.473915
2179.000000	99.474887
2178.000000	99.476077
2177.000000	99.477267
2176.000000	99.477997
2175.000000	99.478088
2174.000000	99.477869
2173.000000	99.477831
2172.000000	99.478152
2171.000000	99.478678
2170.000000	99.479233
2169.000000	99.479784
2168.000000	99.480324
2167.000000	99.480774
2166.000000	99.481065
2165.000000	99.481268
2164.000000	99.481562
2163.000000	99.482063
2162.000000	99.482720
2161.000000	99.483347
2160.000000	99.483780
2159.000000	99.484013
2158.000000	99.484159
2157.000000	99.484369
2156.000000	99.484697
2155.000000	99.485099
2154.000000	99.485493
2153.000000	99.485834
2152.000000	99.486150
2151.000000	99.486490
2150.000000	99.486875
2149.000000	99.487287
2148.000000	99.487705
2147.000000	99.488121
2146.000000	99.488542
2145.000000	99.488970
2144.000000	99.489403
2143.000000	99.489830
2142.000000	99.490227
2141.000000	99.490561
2140.000000	99.490799
2139.000000	99.490938
2138.000000	99.491032
2137.000000	99.491185
2136.000000	99.491483
2135.000000	99.491925
2134.000000	99.492452
2133.000000	99.493073
2132.000000	99.493869
2131.000000	99.494811
2130.000000	99.495608
2129.000000	99.495894
2128.000000	99.495570
2127.000000	99.494958
2126.000000	99.494584
2125.000000	99.494765
2124.000000	99.495429
2123.000000	99.496194
2122.000000	99.496661
2121.000000	99.496682
2120.000000	99.496360
2119.000000	99.495833
2118.000000	99.495200
2117.000000	99.494747
2116.000000	99.494993
2115.000000	99.496241
2114.000000	99.498194
2113.000000	99.500155
2112.000000	99.501743
2111.000000	99.503128
2110.000000	99.504463
2109.000000	99.505413
2108.000000	99.505524
2107.000000	99.504927
2106.000000	99.504419
2105.000000	99.504689
2104.000000	99.505626
2103.000000	99.506522
2102.000000	99.506831
2101.000000	99.506538
2100.000000	99.505843
2099.000000	99.504811
2098.000000	99.503578
2097.000000	99.502649
2096.000000	99.502574
2095.000000	99.503333
2094.000000	99.504338
2093.000000	99.505162
2092.000000	99.505960
2091.000000	99.506966
2090.000000	99.507948
2089.000000	99.508510
2088.000000	99.508740
2087.000000	99.509140
2086.000000	99.509960
2085.000000	99.510936
2084.000000	99.511763
2083.000000	99.512520
2082.000000	99.513460
2081.000000	99.514478
2080.000000	99.515007
2079.000000	99.514518
2078.000000	99.513124
2077.000000	99.511646
2076.000000	99.510971
2075.000000	99.511301
2074.000000	99.512139
2073.000000	99.512894
2072.000000	99.513401
2071.000000	99.513778
2070.000000	99.514036
2069.000000	99.514110
2068.000000	99.514144
2067.000000	99.514352
2066.000000	99.514624
2065.000000	99.514592
2064.000000	99.514149
2063.000000	99.513614
2062.000000	99.513323
2061.000000	99.513316
2060.000000	99.513523
2059.000000	99.513949
2058.000000	99.514465
2057.000000	99.514690
2056.000000	99.514374
2055.000000	99.513766
2054.000000	99.513370
2053.000000	99.513378
2052.000000	99.513542
2051.000000	99.513544
2050.000000	99.513342
2049.000000	99.513164
2048.000000	99.513315
2047.000000	99.513948
2046.000000	99.514831
2045.000000	99.515370
2044.000000	99.515145
2043.000000	99.514441
2042.000000	99.514013
2041.000000	99.514112
2040.000000	99.514049
2039.000000	99.513058
2038.000000	99.511329
2037.000000	99.509945
2036.000000	99.509694
2035.000000	99.510228
2034.000000	99.510536
2033.000000	99.510077
2032.000000	99.509148
2031.000000	99.508218
2030.000000	99.507360
2029.000000	99.506507
2028.000000	99.505769
2027.000000	99.505207
2026.000000	99.504564
2025.000000	99.503624
2024.000000	99.502596
2023.000000	99.501815
2022.000000	99.501238
2021.000000	99.500512
2020.000000	99.499547
2019.000000	99.498658
2018.000000	99.498125
2017.000000	99.497893
2016.000000	99.497801
2015.000000	99.497796
2014.000000	99.497754
2013.000000	99.497358
2012.000000	99.496368
2011.000000	99.494900
2010.000000	99.493356
2009.000000	99.492149
2008.000000	99.491482
2007.000000	99.491200
2006.000000	99.490716
2005.000000	99.489438
2004.000000	99.487376
2003.000000	99.485231
2002.000000	99.483727
2001.000000	99.482911
2000.000000	99.482459
1999.000000	99.482125
1998.000000	99.481774
1997.000000	99.481308
1996.000000	99.480709
1995.000000	99.480158
1994.000000	99.480000
1993.000000	99.480440
1992.000000	99.481237
1991.000000	99.481817
1990.000000	99.481755
1989.000000	99.481121
1988.000000	99.480393
1987.000000	99.480031
1986.000000	99.480061
1985.000000	99.480118
1984.000000	99.479871
1983.000000	99.479337
1982.000000	99.478763
1981.000000	99.478309
1980.000000	99.477948
1979.000000	99.477589
1978.000000	99.477222
1977.000000	99.476903
1976.000000	99.476662
1975.000000	99.476470
1974.000000	99.476280
1973.000000	99.476069
1972.000000	99.475832
1971.000000	99.475565
1970.000000	99.475281
1969.000000	99.475016
1968.000000	99.474793
1967.000000	99.474591
1966.000000	99.474370
1965.000000	99.474119
1964.000000	99.473853
1963.000000	99.473576
1962.000000	99.473283
1961.000000	99.473006
1960.000000	99.472825
1959.000000	99.472788
1958.000000	99.472807
1957.000000	99.472670
1956.000000	99.472207
1955.000000	99.471462
1954.000000	99.470703
1953.000000	99.470143
1952.000000	99.469773
1951.000000	99.469464
1950.000000	99.469143
1949.000000	99.468780
1948.000000	99.468295
1947.000000	99.467570
1946.000000	99.466630
1945.000000	99.465808
1944.000000	99.465534
1943.000000	99.465759
1942.000000	99.465698
1941.000000	99.464704
1940.000000	99.463223
1939.000000	99.462378
1938.000000	99.462694
1937.000000	99.463540
1936.000000	99.463880
1935.000000	99.463317
1934.000000	99.462108
1933.000000	99.460512
1932.000000	99.458436
1931.000000	99.455978
1930.000000	99.453641
1929.000000	99.451889
1928.000000	99.450916
1927.000000	99.450476
1926.000000	99.450223
1925.000000	99.449792
1924.000000	99.448974
1923.000000	99.447884
1922.000000	99.446498
1921.000000	99.444653
1920.000000	99.442542
1919.000000	99.440978
1918.000000	99.440588
1917.000000	99.440643
1916.000000	99.439823
1915.000000	99.437726
1914.000000	99.434795
1913.000000	99.431362
1912.000000	99.427166
1911.000000	99.422397
1910.000000	99.418326
1909.000000	99.416158
1908.000000	99.415433
1907.000000	99.413984
1906.000000	99.410506
1905.000000	99.405829
1904.000000	99.401903
1903.000000	99.399966
1902.000000	99.399323
1901.000000	99.398551
1900.000000	99.397137
1899.000000	99.395089
1898.000000	99.392184
1897.000000	99.388316
1896.000000	99.384577
1895.000000	99.382999
1894.000000	99.384158
1893.000000	99.386089
1892.000000	99.386068
1891.000000	99.383034
1890.000000	99.378055
1889.000000	99.373038
1888.000000	99.369144
1887.000000	99.366133
1886.000000	99.363077
1885.000000	99.359755
1884.000000	99.356927
1883.000000	99.355105
1882.000000	99.353455
1881.000000	99.351163
1880.000000	99.349452
1879.000000	99.350164
1878.000000	99.353136
1877.000000	99.356070
1876.000000	99.356957
1875.000000	99.356348
1874.000000	99.356171
1873.000000	99.356985
1872.000000	99.357746
1871.000000	99.357553
1870.000000	99.356487
1869.000000	99.354802
1868.000000	99.352821
1867.000000	99.351845
1866.000000	99.353156
1865.000000	99.356511
1864.000000	99.360595
1863.000000	99.364252
1862.000000	99.367030
1861.000000	99.369053
1860.000000	99.370769
1859.000000	99.372441
1858.000000	99.373790
1857.000000	99.374665
1856.000000	99.375852
1855.000000	99.378635
1854.000000	99.383273
1853.000000	99.388708
1852.000000	99.394588
1851.000000	99.400674
1850.000000	99.405947
1849.000000	99.409454
1848.000000	99.411087
1847.000000	99.411333
1846.000000	99.410328
1845.000000	99.408772
1844.000000	99.408613
1843.000000	99.411474
1842.000000	99.416015
1841.000000	99.419104
1840.000000	99.419525
1839.000000	99.418466
1838.000000	99.417815
1837.000000	99.418273
1836.000000	99.419734
1835.000000	99.422048
1834.000000	99.424027
1833.000000	99.424027
1832.000000	99.422029
1831.000000	99.419703
1830.000000	99.418658
1829.000000	99.418646
1828.000000	99.418458
1827.000000	99.417807
1826.000000	99.417523
1825.000000	99.418353
1824.000000	99.419620
1823.000000	99.420320
1822.000000	99.420430
1821.000000	99.420622
1820.000000	99.421242
1819.000000	99.421771
1818.000000	99.421647
1817.000000	99.420600
1816.000000	99.419098
1815.000000	99.418275
1814.000000	99.418580
1813.000000	99.419585
1812.000000	99.420329
1811.000000	99.420303
1810.000000	99.419629
1809.000000	99.418158
1808.000000	99.416155
1807.000000	99.414775
1806.000000	99.414954
1805.000000	99.416506
1804.000000	99.418915
1803.000000	99.422157
1802.000000	99.425445
1801.000000	99.427043
1800.000000	99.425869
1799.000000	99.423541
1798.000000	99.422843
1797.000000	99.424170
1796.000000	99.426005
1795.000000	99.427085
1794.000000	99.426940
1793.000000	99.425641
1792.000000	99.423775
1791.000000	99.423073
1790.000000	99.424556
1789.000000	99.426650
1788.000000	99.427910
1787.000000	99.429238
1786.000000	99.432216
1785.000000	99.436091
1784.000000	99.438976
1783.000000	99.440728
1782.000000	99.441328
1781.000000	99.440681
1780.000000	99.438840
1779.000000	99.437445
1778.000000	99.439083
1777.000000	99.443899
1776.000000	99.449971
1775.000000	99.454789
1774.000000	99.457717
1773.000000	99.460486
1772.000000	99.463450
1771.000000	99.465204
1770.000000	99.466665
1769.000000	99.469813
1768.000000	99.475018
1767.000000	99.481116
1766.000000	99.486509
1765.000000	99.490777
1764.000000	99.494552
1763.000000	99.499501
1762.000000	99.506724
1761.000000	99.515351
1760.000000	99.522579
1759.000000	99.526186
1758.000000	99.525263
1757.000000	99.520355
1756.000000	99.513485
1755.000000	99.505625
1754.000000	99.496492
1753.000000	99.486597
1752.000000	99.478987
1751.000000	99.476742
1750.000000	99.479477
1749.000000	99.482832
1748.000000	99.483657
1747.000000	99.482323
1746.000000	99.480247
1745.000000	99.478942
1744.000000	99.478197
1743.000000	99.476522
1742.000000	99.472627
1741.000000	99.466076
1740.000000	99.458367
1739.000000	99.453443
1738.000000	99.453251
1737.000000	99.454798
1736.000000	99.454218
1735.000000	99.451363
1734.000000	99.448119
1733.000000	99.445854
1732.000000	99.444509
1731.000000	99.442197
1730.000000	99.438077
1729.000000	99.433045
1728.000000	99.428703
1727.000000	99.425768
1726.000000	99.423514
1725.000000	99.421250
1724.000000	99.418286
1723.000000	99.415441
1722.000000	99.413918
1721.000000	99.412671
1720.000000	99.409717
1719.000000	99.405005
1718.000000	99.400646
1717.000000	99.397046
1716.000000	99.393236
1715.000000	99.389834
1714.000000	99.387407
1713.000000	99.384641
1712.000000	99.380194
1711.000000	99.374767
1710.000000	99.369744
1709.000000	99.365230
1708.000000	99.360185
1707.000000	99.353749
1706.000000	99.346893
1705.000000	99.341188
1704.000000	99.337678
1703.000000	99.335632
1702.000000	99.332767
1701.000000	99.326349
1700.000000	99.315605
1699.000000	99.306262
1698.000000	99.302037
1697.000000	99.299063
1696.000000	99.293352
1695.000000	99.285698
1694.000000	99.279646
1693.000000	99.274860
1692.000000	99.268457
1691.000000	99.260103
1690.000000	99.250990
1689.000000	99.241979
1688.000000	99.233252
1687.000000	99.223914
1686.000000	99.214275
1685.000000	99.206605
1684.000000	99.201506
1683.000000	99.197934
1682.000000	99.195169
1681.000000	99.191277
1680.000000	99.185069
1679.000000	99.176636
1678.000000	99.165766
1677.000000	99.152947
1676.000000	99.140191
1675.000000	99.130414
1674.000000	99.124613
1673.000000	99.121424
1672.000000	99.117466
1671.000000	99.111093
1670.000000	99.102943
1669.000000	99.094787
1668.000000	99.089550
1667.000000	99.087305
1666.000000	99.085120
1665.000000	99.080507
1664.000000	99.073360
1663.000000	99.066624
1662.000000	99.062436
1661.000000	99.060524
1660.000000	99.058846
1659.000000	99.054699
1658.000000	99.047749
1657.000000	99.039719
1656.000000	99.031078
1655.000000	99.019293
1654.000000	99.006152
1653.000000	98.994261
1652.000000	98.988040
1651.000000	98.990696
1650.000000	98.993811
1649.000000	98.993530
1648.000000	98.994121
1647.000000	98.995990
1646.000000	98.995890
1645.000000	98.994685
1644.000000	98.996128
1643.000000	99.001008
1642.000000	99.007207
1641.000000	99.012275
1640.000000	99.014810
1639.000000	99.014028
1638.000000	99.010019
1637.000000	99.004101
1636.000000	98.999800
1635.000000	99.000318
1634.000000	99.008142
1633.000000	99.020648
1632.000000	99.032306
1631.000000	99.041533
1630.000000	99.048983
1629.000000	99.055679
1628.000000	99.062344
1627.000000	99.069352
1626.000000	99.076261
1625.000000	99.082634
1624.000000	99.087926
1623.000000	99.091299
1622.000000	99.093388
1621.000000	99.097559
1620.000000	99.106692
1619.000000	99.120909
1618.000000	99.138495
1617.000000	99.154265
1616.000000	99.163295
1615.000000	99.167030
1614.000000	99.169726
1613.000000	99.173883
1612.000000	99.181045
1611.000000	99.190998
1610.000000	99.201027
1609.000000	99.209280
1608.000000	99.216464
1607.000000	99.223488
1606.000000	99.229598
1605.000000	99.235086
1604.000000	99.241524
1603.000000	99.249007
1602.000000	99.256764
1601.000000	99.264979
1600.000000	99.274247
1599.000000	99.283291
1598.000000	99.289838
1597.000000	99.293954
1596.000000	99.298136
1595.000000	99.303819
1594.000000	99.309175
1593.000000	99.311822
1592.000000	99.312387
1591.000000	99.314129
1590.000000	99.319611
1589.000000	99.328684
1588.000000	99.339191
1587.000000	99.348869
1586.000000	99.356518
1585.000000	99.362242
1584.000000	99.367452
1583.000000	99.372108
1582.000000	99.374742
1581.000000	99.375189
1580.000000	99.374588
1579.000000	99.373069
1578.000000	99.370656
1577.000000	99.369691
1576.000000	99.372360
1575.000000	99.377830
1574.000000	99.383388
1573.000000	99.387372
1572.000000	99.389821
1571.000000	99.391721
1570.000000	99.393303
1569.000000	99.394232
1568.000000	99.395419
1567.000000	99.396184
1566.000000	99.395298
1565.000000	99.394027
1564.000000	99.395196
1563.000000	99.397802
1562.000000	99.398535
1561.000000	99.395781
1560.000000	99.395365
1559.000000	99.399795
1558.000000	99.401168
1557.000000	99.401416
1556.000000	99.404844
1555.000000	99.410261
1554.000000	99.416087
1553.000000	99.420911
1552.000000	99.424493
1551.000000	99.426619
1550.000000	99.427300
1549.000000	99.425880
1548.000000	99.423053
1547.000000	99.420713
1546.000000	99.420266
1545.000000	99.421821
1544.000000	99.423499
1543.000000	99.423492
1542.000000	99.423031
1541.000000	99.424806
1540.000000	99.427757
1539.000000	99.428569
1538.000000	99.428111
1537.000000	99.427530
1536.000000	99.426379
1535.000000	99.425815
1534.000000	99.426562
1533.000000	99.426936
1532.000000	99.424606
1531.000000	99.420019
1530.000000	99.415345
1529.000000	99.412113
1528.000000	99.410937
1527.000000	99.411605
1526.000000	99.413175
1525.000000	99.414732
1524.000000	99.415686
1523.000000	99.416118
1522.000000	99.416839
1521.000000	99.417594
1520.000000	99.417724
1519.000000	99.417617
1518.000000	99.418535
1517.000000	99.421781
1516.000000	99.426387
1515.000000	99.429810
1514.000000	99.430653
1513.000000	99.429375
1512.000000	99.427410
1511.000000	99.426307
1510.000000	99.426845
1509.000000	99.428950
1508.000000	99.432840
1507.000000	99.437276
1506.000000	99.438670
1505.000000	99.438203
1504.000000	99.438817
1503.000000	99.439891
1502.000000	99.440882
1501.000000	99.441663
1500.000000	99.442197
1499.000000	99.443100
1498.000000	99.445778
1497.000000	99.450276
1496.000000	99.453830
1495.000000	99.454911
1494.000000	99.454452
1493.000000	99.453422
1492.000000	99.452533
1491.000000	99.453408
1490.000000	99.457129
1489.000000	99.461487
1488.000000	99.463195
1487.000000	99.462744
1486.000000	99.462790
1485.000000	99.463981
1484.000000	99.465512
1483.000000	99.466128
1482.000000	99.465351
1481.000000	99.463103
1480.000000	99.459471
1479.000000	99.455489
1478.000000	99.453050
1477.000000	99.453307
1476.000000	99.454946
1475.000000	99.455955
1474.000000	99.455927
1473.000000	99.456411
1472.000000	99.457676
1471.000000	99.458772
1470.000000	99.459726
1469.000000	99.460371
1468.000000	99.459588
1467.000000	99.456265
1466.000000	99.450111
1465.000000	99.443036
1464.000000	99.438271
1463.000000	99.436817
1462.000000	99.437092
1461.000000	99.436168
1460.000000	99.431875
1459.000000	99.423997
1458.000000	99.416544
1457.000000	99.414565
1456.000000	99.416827
1455.000000	99.418254
1454.000000	99.416358
1453.000000	99.412907
1452.000000	99.410071
1451.000000	99.407424
1450.000000	99.403853
1449.000000	99.399599
1448.000000	99.394981
1447.000000	99.389473
1446.000000	99.382471
1445.000000	99.376024
1444.000000	99.371824
1443.000000	99.368418
1442.000000	99.363991
1441.000000	99.358755
1440.000000	99.354268
1439.000000	99.350899
1438.000000	99.349073
1437.000000	99.348750
1436.000000	99.347780
1435.000000	99.344226
1434.000000	99.339086
1433.000000	99.334290
1432.000000	99.330918
1431.000000	99.328672
1430.000000	99.327378
1429.000000	99.328021
1428.000000	99.330594
1427.000000	99.333207
1426.000000	99.333182
1425.000000	99.331303
1424.000000	99.330101
1423.000000	99.329362
1422.000000	99.328032
1421.000000	99.327641
1420.000000	99.331711
1419.000000	99.339075
1418.000000	99.343545
1417.000000	99.343244
1416.000000	99.342085
1415.000000	99.343629
1414.000000	99.348261
1413.000000	99.353990
1412.000000	99.358254
1411.000000	99.359807
1410.000000	99.360374
1409.000000	99.363211
1408.000000	99.369788
1407.000000	99.379080
1406.000000	99.388079
1405.000000	99.394650
1404.000000	99.398830
1403.000000	99.401737
1402.000000	99.404963
1401.000000	99.410031
1400.000000	99.417619
1399.000000	99.425736
1398.000000	99.431328
1397.000000	99.434158
1396.000000	99.437087
1395.000000	99.442720
1394.000000	99.450226
1393.000000	99.457046
1392.000000	99.461311
1391.000000	99.462474
1390.000000	99.461775
1389.000000	99.461972
1388.000000	99.465529
1387.000000	99.472241
1386.000000	99.479005
1385.000000	99.482978
1384.000000	99.483378
1383.000000	99.480753
1382.000000	99.476799
1381.000000	99.473624
1380.000000	99.472877
1379.000000	99.474947
1378.000000	99.478723
1377.000000	99.482543
1376.000000	99.485684
1375.000000	99.488886
1374.000000	99.493191
1373.000000	99.498628
1372.000000	99.503805
1371.000000	99.507097
1370.000000	99.507979
1369.000000	99.507851
1368.000000	99.508624
1367.000000	99.510430
1366.000000	99.511763
1365.000000	99.511378
1364.000000	99.509632
1363.000000	99.508328
1362.000000	99.509328
1361.000000	99.512791
1360.000000	99.516748
1359.000000	99.518733
1358.000000	99.518101
1357.000000	99.516694
1356.000000	99.516608
1355.000000	99.517529
1354.000000	99.517379
1353.000000	99.515215
1352.000000	99.512129
1351.000000	99.509787
1350.000000	99.508580
1349.000000	99.508350
1348.000000	99.509402
1347.000000	99.511888
1346.000000	99.514803
1345.000000	99.516243
1344.000000	99.514895
1343.000000	99.511091
1342.000000	99.506784
1341.000000	99.504520
1340.000000	99.505591
1339.000000	99.508584
1338.000000	99.510657
1337.000000	99.510706
1336.000000	99.510286
1335.000000	99.511503
1334.000000	99.514788
1333.000000	99.518588
1332.000000	99.520670
1331.000000	99.519698
1330.000000	99.516217
1329.000000	99.512593
1328.000000	99.511401
1327.000000	99.513280
1326.000000	99.516222
1325.000000	99.517426
1324.000000	99.515710
1323.000000	99.512120
1322.000000	99.508779
1321.000000	99.507265
1320.000000	99.507676
1319.000000	99.508850
1318.000000	99.509828
1317.000000	99.511240
1316.000000	99.514614
1315.000000	99.519958
1314.000000	99.524623
1313.000000	99.525315
1312.000000	99.521190
1311.000000	99.514750
1310.000000	99.509917
1309.000000	99.509313
1308.000000	99.512701
1307.000000	99.517297
1306.000000	99.519722
1305.000000	99.518653
1304.000000	99.515615
1303.000000	99.513162
1302.000000	99.512582
1301.000000	99.513589
1300.000000	99.515424
1299.000000	99.517195
1298.000000	99.517641
1297.000000	99.515980
1296.000000	99.513240
1295.000000	99.511708
1294.000000	99.512701
1293.000000	99.515540
1292.000000	99.518716
1291.000000	99.521022
1290.000000	99.521281
1289.000000	99.518316
1288.000000	99.512335
1287.000000	99.505784
1286.000000	99.501714
1285.000000	99.501137
1284.000000	99.502302
1283.000000	99.502235
1282.000000	99.499026
1281.000000	99.493367
1280.000000	99.488251
1279.000000	99.486350
1278.000000	99.487231
1277.000000	99.487840
1276.000000	99.486206
1275.000000	99.483763
1274.000000	99.483255
1273.000000	99.485078
1272.000000	99.486775
1271.000000	99.485942
1270.000000	99.482770
1269.000000	99.479638
1268.000000	99.478882
1267.000000	99.481109
1266.000000	99.485196
1265.000000	99.489490
1264.000000	99.492765
1263.000000	99.494125
1262.000000	99.492645
1261.000000	99.487742
1260.000000	99.479625
1259.000000	99.468791
1258.000000	99.455703
1257.000000	99.441926
1256.000000	99.430756
1255.000000	99.424623
1254.000000	99.421532
1253.000000	99.416029
1252.000000	99.404469
1251.000000	99.387940
1250.000000	99.369755
1249.000000	99.352135
1248.000000	99.336322
1247.000000	99.323442
1246.000000	99.312979
1245.000000	99.301894
1244.000000	99.287737
1243.000000	99.271962
1242.000000	99.257974
1241.000000	99.246285
1240.000000	99.233860
1239.000000	99.218399
1238.000000	99.201206
1237.000000	99.184856
1236.000000	99.169242
1235.000000	99.151208
1234.000000	99.128179
1233.000000	99.101613
1232.000000	99.076228
1231.000000	99.055218
1230.000000	99.036506
1229.000000	99.014731
1228.000000	98.986712
1227.000000	98.953566
1226.000000	98.917495
1225.000000	98.878348
1224.000000	98.834342
1223.000000	98.784647
1222.000000	98.730009
1221.000000	98.672012
1220.000000	98.612731
1219.000000	98.553584
1218.000000	98.493104
1217.000000	98.427123
1216.000000	98.352669
1215.000000	98.270730
1214.000000	98.184403
1213.000000	98.095953
1212.000000	98.006933
1211.000000	97.919020
1210.000000	97.832451
1209.000000	97.745134
1208.000000	97.655532
1207.000000	97.565378
1206.000000	97.477850
1205.000000	97.394064
1204.000000	97.312602
1203.000000	97.231257
1202.000000	97.148218
1201.000000	97.062949
1200.000000	96.976820
1199.000000	96.891628
1198.000000	96.807138
1197.000000	96.721684
1196.000000	96.634969
1195.000000	96.547978
1194.000000	96.460316
1193.000000	96.370445
1192.000000	96.278492
1191.000000	96.185938
1190.000000	96.092790
1189.000000	95.998363
1188.000000	95.904429
1187.000000	95.813446
1186.000000	95.723589
1185.000000	95.629973
1184.000000	95.531094
1183.000000	95.429468
1182.000000	95.325824
1181.000000	95.218175
1180.000000	95.107490
1179.000000	94.998175
1178.000000	94.890840
1177.000000	94.780210
1176.000000	94.662639
1175.000000	94.540602
1174.000000	94.417474
1173.000000	94.293316
1172.000000	94.168436
1171.000000	94.045475
1170.000000	93.924632
1169.000000	93.801953
1168.000000	93.676044
1167.000000	93.552869
1166.000000	93.442161
1165.000000	93.353964
1164.000000	93.299735
1163.000000	93.289220
1162.000000	93.321510
1161.000000	93.382645
1160.000000	93.453273
1159.000000	93.514527
1158.000000	93.548375
1157.000000	93.541903
1156.000000	93.494910
1155.000000	93.418215
1154.000000	93.322521
1153.000000	93.213766
1152.000000	93.099409
1151.000000	92.989510
1150.000000	92.886542
1149.000000	92.781717
1148.000000	92.667138
1147.000000	92.546041
1146.000000	92.426838
1145.000000	92.312900
1144.000000	92.202557
1143.000000	92.093094
1142.000000	91.980162
1141.000000	91.859138
1140.000000	91.731691
1139.000000	91.605805
1138.000000	91.485331
1137.000000	91.364952
1136.000000	91.238899
1135.000000	91.108124
1134.000000	90.975008
1133.000000	90.837674
1132.000000	90.694202
1131.000000	90.546563
1130.000000	90.396377
1129.000000	90.242882
1128.000000	90.088666
1127.000000	89.940279
1126.000000	89.798572
1125.000000	89.655109
1124.000000	89.502566
1123.000000	89.342364
1122.000000	89.178558
1121.000000	89.011729
1120.000000	88.843698
1119.000000	88.681112
1118.000000	88.528942
1117.000000	88.386105
1116.000000	88.250812
1115.000000	88.123686
1114.000000	88.002785
1113.000000	87.882746
1112.000000	87.761486
1111.000000	87.640610
1110.000000	87.518249
1109.000000	87.390072
1108.000000	87.257960
1107.000000	87.128007
1106.000000	86.998966
1105.000000	86.863205
1104.000000	86.720452
1103.000000	86.579460
1102.000000	86.444456
1101.000000	86.311429
1100.000000	86.179379
1099.000000	86.052530
1098.000000	85.929116
1097.000000	85.800608
1096.000000	85.664878
1095.000000	85.528194
1094.000000	85.392453
1093.000000	85.253701
1092.000000	85.114994
1091.000000	84.986182
1090.000000	84.868074
1089.000000	84.751195
1088.000000	84.632824
1087.000000	84.520212
1086.000000	84.414271
1085.000000	84.306162
1084.000000	84.193919
1083.000000	84.086800
1082.000000	83.989086
1081.000000	83.895102
1080.000000	83.804258
1079.000000	83.724519
1078.000000	83.655604
1077.000000	83.584385
1076.000000	83.502348
1075.000000	83.412516
1074.000000	83.314529
1073.000000	83.198438
1072.000000	83.058725
1071.000000	82.900036
1070.000000	82.724305
1069.000000	82.526336
1068.000000	82.306850
1067.000000	82.075689
1066.000000	81.837300
1065.000000	81.587119
1064.000000	81.326875
1063.000000	81.068695
1062.000000	80.819534
1061.000000	80.576233
1060.000000	80.339401
1059.000000	80.115594
1058.000000	79.901750
1057.000000	79.684502
1056.000000	79.459175
1055.000000	79.232726
1054.000000	79.004292
1053.000000	78.761059
1052.000000	78.498748
1051.000000	78.227461
1050.000000	77.951253
1049.000000	77.662390
1048.000000	77.360946
1047.000000	77.057067
1046.000000	76.749828
1045.000000	76.427262
1044.000000	76.090751
1043.000000	75.756918
1042.000000	75.431492
1041.000000	75.103420
1040.000000	74.769916
1039.000000	74.445144
1038.000000	74.137943
1037.000000	73.842789
1036.000000	73.558832
1035.000000	73.296105
1034.000000	73.057019
1033.000000	72.833286
1032.000000	72.625825
1031.000000	72.445447
1030.000000	72.289916
1029.000000	72.143928
1028.000000	72.005875
1027.000000	71.889587
1026.000000	71.794685
1025.000000	71.701133
1024.000000	71.599561
1023.000000	71.501888
1022.000000	71.415027
1021.000000	71.328950
1020.000000	71.237808
1019.000000	71.148644
1018.000000	71.061876
1017.000000	70.966741
1016.000000	70.862993
1015.000000	70.764198
1014.000000	70.673213
1013.000000	70.577170
1012.000000	70.472440
1011.000000	70.371641
1010.000000	70.280453
1009.000000	70.190725
1008.000000	70.102054
1007.000000	70.027001
1006.000000	69.969123
1005.000000	69.918483
1004.000000	69.874049
1003.000000	69.847717
1002.000000	69.840967
1001.000000	69.840023
1000.000000	69.838712
999.000000	69.843861
998.000000	69.855001
997.000000	69.862879
996.000000	69.872000
995.000000	69.899810
994.000000	69.948113
993.000000	69.998752
992.000000	70.042492
991.000000	70.089068
990.000000	70.144492
989.000000	70.203179
988.000000	70.267791
987.000000	70.352286
986.000000	70.458690
985.000000	70.573703
984.000000	70.694235
983.000000	70.833972
982.000000	70.999235
981.000000	71.180988
980.000000	71.376200
979.000000	71.594727
978.000000	71.838901
977.000000	72.097515
976.000000	72.365711
975.000000	72.651130
974.000000	72.956277
973.000000	73.274703
972.000000	73.607694
971.000000	73.964071
970.000000	74.339848
969.000000	74.718031
968.000000	75.091800
967.000000	75.468715
966.000000	75.850171
965.000000	76.227005
964.000000	76.597732
963.000000	76.970526
962.000000	77.343588
961.000000	77.702913
960.000000	78.043195
959.000000	78.372866
958.000000	78.695664
957.000000	79.005292
956.000000	79.301071
955.000000	79.590513
954.000000	79.872832
953.000000	80.137415
952.000000	80.382156
951.000000	80.616361
950.000000	80.842225
949.000000	81.050484
948.000000	81.237901
947.000000	81.411822
946.000000	81.573435
945.000000	81.713538
944.000000	81.830173
943.000000	81.934646
942.000000	82.034742
941.000000	82.126931
940.000000	82.210451
939.000000	82.293937
938.000000	82.382083
937.000000	82.469746
936.000000	82.554984
935.000000	82.644463
934.000000	82.740699
933.000000	82.836899
932.000000	82.929329
931.000000	83.022437
930.000000	83.118308
929.000000	83.214004
928.000000	83.312198
927.000000	83.420047
926.000000	83.533521
925.000000	83.637130
924.000000	83.724048
923.000000	83.803211
922.000000	83.881779
921.000000	83.953726
920.000000	84.011336
919.000000	84.056270
918.000000	84.094182
917.000000	84.129301
916.000000	84.168871
915.000000	84.222457
914.000000	84.292588
913.000000	84.375378
912.000000	84.472461
911.000000	84.592259
910.000000	84.738776
909.000000	84.910825
908.000000	85.112535
907.000000	85.351270
906.000000	85.623876
905.000000	85.917605
904.000000	86.225696
903.000000	86.550103
902.000000	86.889373
901.000000	87.236619
900.000000	87.588679
899.000000	87.944205
898.000000	88.293807
897.000000	88.625772
896.000000	88.941042
895.000000	89.249589
894.000000	89.552551
893.000000	89.840779
892.000000	90.110501
891.000000	90.367183
890.000000	90.613416
889.000000	90.845732
888.000000	91.065083
887.000000	91.279081
886.000000	91.491938
885.000000	91.701769
884.000000	91.908110
883.000000	92.112167
882.000000	92.310462
881.000000	92.499379
880.000000	92.685339
879.000000	92.878734
878.000000	93.078274
877.000000	93.273746
876.000000	93.463710
875.000000	93.657099
874.000000	93.857426
873.000000	94.059406
872.000000	94.262323
871.000000	94.472818
870.000000	94.691464
869.000000	94.907969
868.000000	95.112777
867.000000	95.305080
866.000000	95.488758
865.000000	95.668430
864.000000	95.849143
863.000000	96.031560
862.000000	96.207362
861.000000	96.366789
860.000000	96.509640
859.000000	96.641969
858.000000	96.765586
857.000000	96.880490
856.000000	96.994234
855.000000	97.115789
854.000000	97.239505
853.000000	97.347393
852.000000	97.429822
851.000000	97.494179
850.000000	97.551522
849.000000	97.604667
848.000000	97.651852
847.000000	97.691775
846.000000	97.720684
845.000000	97.732624
844.000000	97.726546
843.000000	97.706629
842.000000	97.673101
841.000000	97.619666
840.000000	97.542433
839.000000	97.445002
838.000000	97.333385
837.000000	97.212726
836.000000	97.089757
835.000000	96.970541
834.000000	96.854978
833.000000	96.742742
832.000000	96.645371
831.000000	96.580513
830.000000	96.550692
829.000000	96.540217
828.000000	96.538564
827.000000	96.553832
826.000000	96.595175
825.000000	96.654808
824.000000	96.717744
823.000000	96.777337
822.000000	96.830370
821.000000	96.868272
820.000000	96.885023
819.000000	96.886118
818.000000	96.880358
817.000000	96.866948
816.000000	96.835885
815.000000	96.776217
814.000000	96.678640
813.000000	96.532988
812.000000	96.327492
811.000000	96.049578
810.000000	95.687712
809.000000	95.237961
808.000000	94.710932
807.000000	94.126850
806.000000	93.501373
805.000000	92.843145
804.000000	92.168183
803.000000	91.507129
802.000000	90.893274
801.000000	90.353276
800.000000	89.913652
799.000000	89.601551
798.000000	89.429134
797.000000	89.386009
796.000000	89.451131
795.000000	89.601218
794.000000	89.806693
793.000000	90.035283
792.000000	90.264911
791.000000	90.482155
790.000000	90.667459
789.000000	90.795422
788.000000	90.851719
787.000000	90.837249
786.000000	90.754253
785.000000	90.602453
784.000000	90.392694
783.000000	90.151026
782.000000	89.904026
781.000000	89.672356
780.000000	89.482330
779.000000	89.367037
778.000000	89.346276
777.000000	89.416311
776.000000	89.564245
775.000000	89.779007
774.000000	90.043191
773.000000	90.329212
772.000000	90.612489
771.000000	90.879609
770.000000	91.120290
769.000000	91.323206
768.000000	91.485200
767.000000	91.614722
766.000000	91.720870
765.000000	91.807092
764.000000	91.878299
763.000000	91.943061
762.000000	92.003652
761.000000	92.053966
760.000000	92.092821
759.000000	92.130474
758.000000	92.177495
757.000000	92.236214
756.000000	92.306728
755.000000	92.390372
754.000000	92.482114
753.000000	92.570299
752.000000	92.650468
751.000000	92.731093
750.000000	92.820755
749.000000	92.918522
748.000000	93.022295
747.000000	93.137764
746.000000	93.272061
745.000000	93.424765
744.000000	93.590277
743.000000	93.763271
742.000000	93.938971
741.000000	94.115542
740.000000	94.298919
739.000000	94.496994
738.000000	94.705386
737.000000	94.906518
736.000000	95.085697
735.000000	95.240345
734.000000	95.372337
733.000000	95.481881
732.000000	95.572910
731.000000	95.654753
730.000000	95.732464
729.000000	95.802517
728.000000	95.861746
727.000000	95.913590
726.000000	95.962675
725.000000	96.010607
724.000000	96.061294
723.000000	96.122979
722.000000	96.199706
721.000000	96.286456
720.000000	96.376944
719.000000	96.470456
718.000000	96.566503
717.000000	96.658331
716.000000	96.737220
715.000000	96.800066
714.000000	96.849792
713.000000	96.891152
712.000000	96.926936
711.000000	96.954589
710.000000	96.966648
709.000000	96.959797
708.000000	96.942139
707.000000	96.923567
706.000000	96.899153
705.000000	96.849680
704.000000	96.759227
703.000000	96.624293
702.000000	96.443393
701.000000	96.207658
700.000000	95.908075
699.000000	95.547880
698.000000	95.150840
697.000000	94.765844
696.000000	94.459137
695.000000	94.285642
694.000000	94.259397
693.000000	94.355854
692.000000	94.538608
691.000000	94.773146
690.000000	95.022590
689.000000	95.252093
688.000000	95.447350
687.000000	95.617524
686.000000	95.771993
685.000000	95.907725
684.000000	96.023443
683.000000	96.127135
682.000000	96.222408
681.000000	96.303341
680.000000	96.371389
679.000000	96.441508
678.000000	96.520718
677.000000	96.597650
676.000000	96.663437
675.000000	96.728181
674.000000	96.809147
673.000000	96.908007
672.000000	97.006752
671.000000	97.084999
670.000000	97.135536
669.000000	97.171790
668.000000	97.232021
667.000000	97.332318
666.000000	97.441679
665.000000	97.539449
664.000000	97.626029
663.000000	97.704680
662.000000	97.774172
661.000000	97.830658
660.000000	97.872249
659.000000	97.898255
658.000000	97.908966
657.000000	97.910130
656.000000	97.910247
655.000000	97.907614
654.000000	97.890548
653.000000	97.854293
652.000000	97.813138
651.000000	97.792030
650.000000	97.804033
649.000000	97.841158
648.000000	97.888526
647.000000	97.938357
646.000000	97.987681
645.000000	98.032124
644.000000	98.071508
643.000000	98.117760
642.000000	98.185808
641.000000	98.275164
640.000000	98.366788
639.000000	98.440352
638.000000	98.493897
637.000000	98.543152
636.000000	98.600265
635.000000	98.659229
634.000000	98.705428
633.000000	98.735938
632.000000	98.762482
631.000000	98.795165
630.000000	98.832045
629.000000	98.867671
628.000000	98.903734
627.000000	98.946463
626.000000	99.001567
625.000000	99.076193
624.000000	99.178043
623.000000	99.302515
622.000000	99.427650
621.000000	99.532099
620.000000	99.606046
619.000000	99.639710
618.000000	99.625853
617.000000	99.584301
616.000000	99.558181
615.000000	99.569709
614.000000	99.596431
613.000000	99.605085
612.000000	99.586716
611.000000	99.543502
610.000000	99.473627
609.000000	99.397653
608.000000	99.371972
607.000000	99.429182
606.000000	99.513865
605.000000	99.530922
604.000000	99.455169
603.000000	99.345418
602.000000	99.256754
601.000000	99.188876
600.000000	99.130350
599.000000	99.096068
598.000000	99.092480
597.000000	99.089736
596.000000	99.059951
595.000000	99.012515
594.000000	98.972363
593.000000	98.952529
592.000000	98.962672
591.000000	99.005041
590.000000	99.047505
589.000000	99.053082
588.000000	99.049345
587.000000	99.107306
586.000000	99.226132
585.000000	99.306642
584.000000	99.287535
583.000000	99.240115
582.000000	99.270402
581.000000	99.377447
580.000000	99.482526
579.000000	99.548597
578.000000	99.594189
577.000000	99.627675
576.000000	99.643773
575.000000	99.664532
574.000000	99.718625
573.000000	99.797026
572.000000	99.879073
571.000000	99.968471
570.000000	100.057543
569.000000	100.096500
568.000000	100.053533
567.000000	99.969005
566.000000	99.897279
565.000000	99.827544
564.000000	99.717866
563.000000	99.565581
562.000000	99.397273
561.000000	99.231350
560.000000	99.098812
559.000000	99.047787
558.000000	99.073363
557.000000	99.105107
556.000000	99.108123
555.000000	99.116611
554.000000	99.137271
553.000000	99.125471
552.000000	99.100022
551.000000	99.162204
550.000000	99.338424
