PE IR       SUBTECH     SPECTRUM    ASCII       PEDS        4.00        
   -1
BH-1(1)40-42_1.asc
24/05/14
10:44:12.00
24/05/14
10:44:36.00
Administrator
?品 002 用? Administrator 日期 Tuesday, May 14 2024
550.000000
#HDR
-1
-1
#GR
cm-1
%T
1.0
0.0
4000.000000
-1.000000
3451
8
101.297364
81.705339
#DATA
4000.000000	101.094168
3999.000000	101.095277
3998.000000	101.097398
3997.000000	101.099543
3996.000000	101.100352
3995.000000	101.098962
3994.000000	101.095429
3993.000000	101.090781
3992.000000	101.086468
3991.000000	101.083359
3990.000000	101.081453
3989.000000	101.080366
3988.000000	101.079857
3987.000000	101.079873
3986.000000	101.080215
3985.000000	101.080434
3984.000000	101.080232
3983.000000	101.079842
3982.000000	101.079738
3981.000000	101.079936
3980.000000	101.079801
3979.000000	101.078765
3978.000000	101.077152
3977.000000	101.076075
3976.000000	101.076471
3975.000000	101.078407
3974.000000	101.081217
3973.000000	101.084039
3972.000000	101.086149
3971.000000	101.086966
3970.000000	101.086108
3969.000000	101.083720
3968.000000	101.080768
3967.000000	101.078707
3966.000000	101.078544
3965.000000	101.080126
3964.000000	101.082199
3963.000000	101.083251
3962.000000	101.082587
3961.000000	101.080636
3960.000000	101.078460
3959.000000	101.076984
3958.000000	101.076454
3957.000000	101.076419
3956.000000	101.076178
3955.000000	101.075438
3954.000000	101.074618
3953.000000	101.074531
3952.000000	101.075743
3951.000000	101.078187
3950.000000	101.081211
3949.000000	101.083946
3948.000000	101.085759
3947.000000	101.086406
3946.000000	101.085961
3945.000000	101.084762
3944.000000	101.083311
3943.000000	101.081976
3942.000000	101.080797
3941.000000	101.079746
3940.000000	101.079235
3939.000000	101.080058
3938.000000	101.082649
3937.000000	101.086489
3936.000000	101.090293
3935.000000	101.092941
3934.000000	101.094136
3933.000000	101.094259
3932.000000	101.093777
3931.000000	101.092911
3930.000000	101.091785
3929.000000	101.090544
3928.000000	101.089363
3927.000000	101.088484
3926.000000	101.088269
3925.000000	101.088862
3924.000000	101.089844
3923.000000	101.090606
3922.000000	101.091038
3921.000000	101.091421
3920.000000	101.091851
3919.000000	101.092169
3918.000000	101.092373
3917.000000	101.092600
3916.000000	101.092702
3915.000000	101.092291
3914.000000	101.091346
3913.000000	101.090429
3912.000000	101.090226
3911.000000	101.090924
3910.000000	101.092199
3909.000000	101.093487
3908.000000	101.094320
3907.000000	101.094511
3906.000000	101.094143
3905.000000	101.093479
3904.000000	101.092740
3903.000000	101.092010
3902.000000	101.091349
3901.000000	101.090868
3900.000000	101.090605
3899.000000	101.090455
3898.000000	101.090260
3897.000000	101.089946
3896.000000	101.089542
3895.000000	101.089091
3894.000000	101.088628
3893.000000	101.088175
3892.000000	101.087736
3891.000000	101.087302
3890.000000	101.086860
3889.000000	101.086396
3888.000000	101.085904
3887.000000	101.085390
3886.000000	101.084870
3885.000000	101.084347
3884.000000	101.083811
3883.000000	101.083262
3882.000000	101.082718
3881.000000	101.082199
3880.000000	101.081714
3879.000000	101.081243
3878.000000	101.080752
3877.000000	101.080220
3876.000000	101.079662
3875.000000	101.079120
3874.000000	101.078613
3873.000000	101.078094
3872.000000	101.077511
3871.000000	101.076933
3870.000000	101.076530
3869.000000	101.076362
3868.000000	101.076226
3867.000000	101.075881
3866.000000	101.075312
3865.000000	101.074705
3864.000000	101.074107
3863.000000	101.073363
3862.000000	101.072525
3861.000000	101.071918
3860.000000	101.071776
3859.000000	101.072072
3858.000000	101.072554
3857.000000	101.072886
3856.000000	101.072688
3855.000000	101.071899
3854.000000	101.071280
3853.000000	101.071373
3852.000000	101.071460
3851.000000	101.070896
3850.000000	101.070331
3849.000000	101.070713
3848.000000	101.072223
3847.000000	101.074271
3846.000000	101.076253
3845.000000	101.078029
3844.000000	101.079798
3843.000000	101.081525
3842.000000	101.082653
3841.000000	101.082629
3840.000000	101.081647
3839.000000	101.080618
3838.000000	101.080373
3837.000000	101.081053
3836.000000	101.082186
3835.000000	101.083206
3834.000000	101.083849
3833.000000	101.084275
3832.000000	101.084844
3831.000000	101.085724
3830.000000	101.086808
3829.000000	101.087968
3828.000000	101.089242
3827.000000	101.090682
3826.000000	101.092038
3825.000000	101.092797
3824.000000	101.092767
3823.000000	101.092358
3822.000000	101.092213
3821.000000	101.092486
3820.000000	101.092798
3819.000000	101.092956
3818.000000	101.093109
3817.000000	101.093396
3816.000000	101.093747
3815.000000	101.094055
3814.000000	101.094293
3813.000000	101.094489
3812.000000	101.094651
3811.000000	101.094780
3810.000000	101.094887
3809.000000	101.094980
3808.000000	101.095072
3807.000000	101.095172
3806.000000	101.095272
3805.000000	101.095354
3804.000000	101.095407
3803.000000	101.095436
3802.000000	101.095455
3801.000000	101.095468
3800.000000	101.095471
3799.000000	101.095465
3798.000000	101.095458
3797.000000	101.095459
3796.000000	101.095464
3795.000000	101.095464
3794.000000	101.095451
3793.000000	101.095427
3792.000000	101.095400
3791.000000	101.095373
3790.000000	101.095342
3789.000000	101.095298
3788.000000	101.095227
3787.000000	101.095125
3786.000000	101.095003
3785.000000	101.094874
3784.000000	101.094746
3783.000000	101.094616
3782.000000	101.094480
3781.000000	101.094336
3780.000000	101.094182
3779.000000	101.094015
3778.000000	101.093832
3777.000000	101.093633
3776.000000	101.093418
3775.000000	101.093179
3774.000000	101.092908
3773.000000	101.092604
3772.000000	101.092281
3771.000000	101.091961
3770.000000	101.091652
3769.000000	101.091348
3768.000000	101.091040
3767.000000	101.090722
3766.000000	101.090408
3765.000000	101.090162
3764.000000	101.090095
3763.000000	101.090023
3762.000000	101.089630
3761.000000	101.089006
3760.000000	101.088436
3759.000000	101.087789
3758.000000	101.086886
3757.000000	101.086050
3756.000000	101.085629
3755.000000	101.085514
3754.000000	101.085421
3753.000000	101.085214
3752.000000	101.084609
3751.000000	101.083344
3750.000000	101.082013
3749.000000	101.081234
3748.000000	101.080139
3747.000000	101.077682
3746.000000	101.075135
3745.000000	101.075605
3744.000000	101.078589
3743.000000	101.078723
3742.000000	101.073618
3741.000000	101.066623
3740.000000	101.062030
3739.000000	101.060608
3738.000000	101.059934
3737.000000	101.058010
3736.000000	101.054817
3735.000000	101.050872
3734.000000	101.046981
3733.000000	101.045458
3732.000000	101.048388
3731.000000	101.054512
3730.000000	101.060329
3729.000000	101.064013
3728.000000	101.066508
3727.000000	101.068888
3726.000000	101.069690
3725.000000	101.066880
3724.000000	101.061541
3723.000000	101.056496
3722.000000	101.052369
3721.000000	101.047358
3720.000000	101.040716
3719.000000	101.034254
3718.000000	101.030243
3717.000000	101.028554
3716.000000	101.026638
3715.000000	101.022943
3714.000000	101.018871
3713.000000	101.016398
3712.000000	101.014454
3711.000000	101.009545
3710.000000	101.000493
3709.000000	100.990028
3708.000000	100.981728
3707.000000	100.976981
3706.000000	100.974216
3705.000000	100.970562
3704.000000	100.964408
3703.000000	100.956723
3702.000000	100.950089
3701.000000	100.945792
3700.000000	100.942327
3699.000000	100.937567
3698.000000	100.931598
3697.000000	100.926034
3696.000000	100.920958
3695.000000	100.914753
3694.000000	100.907137
3693.000000	100.899694
3692.000000	100.893404
3691.000000	100.887986
3690.000000	100.884483
3689.000000	100.885443
3688.000000	100.890023
3687.000000	100.892593
3686.000000	100.888861
3685.000000	100.880420
3684.000000	100.872052
3683.000000	100.866418
3682.000000	100.862370
3681.000000	100.858249
3680.000000	100.853358
3679.000000	100.845833
3678.000000	100.833236
3677.000000	100.817274
3676.000000	100.804514
3675.000000	100.796395
3674.000000	100.785954
3673.000000	100.769281
3672.000000	100.751399
3671.000000	100.739743
3670.000000	100.734458
3669.000000	100.727993
3668.000000	100.716440
3667.000000	100.703950
3666.000000	100.695230
3665.000000	100.689652
3664.000000	100.682494
3663.000000	100.670263
3662.000000	100.654042
3661.000000	100.637706
3660.000000	100.623407
3659.000000	100.610527
3658.000000	100.598350
3657.000000	100.587997
3656.000000	100.579635
3655.000000	100.569411
3654.000000	100.553212
3653.000000	100.532271
3652.000000	100.513460
3651.000000	100.503161
3650.000000	100.500176
3649.000000	100.496934
3648.000000	100.489461
3647.000000	100.479788
3646.000000	100.469777
3645.000000	100.459341
3644.000000	100.448869
3643.000000	100.439390
3642.000000	100.430332
3641.000000	100.419385
3640.000000	100.405563
3639.000000	100.391156
3638.000000	100.378712
3637.000000	100.368059
3636.000000	100.358377
3635.000000	100.350961
3634.000000	100.346137
3633.000000	100.338483
3632.000000	100.320730
3631.000000	100.293863
3630.000000	100.271367
3629.000000	100.265853
3628.000000	100.270259
3627.000000	100.267083
3626.000000	100.251733
3625.000000	100.232618
3624.000000	100.217671
3623.000000	100.208179
3622.000000	100.202703
3621.000000	100.202803
3620.000000	100.211095
3619.000000	100.224747
3618.000000	100.236491
3617.000000	100.243122
3616.000000	100.248608
3615.000000	100.258650
3614.000000	100.274003
3613.000000	100.289033
3612.000000	100.297657
3611.000000	100.300323
3610.000000	100.303887
3609.000000	100.314554
3608.000000	100.331346
3607.000000	100.347312
3606.000000	100.356725
3605.000000	100.359296
3604.000000	100.358164
3603.000000	100.356846
3602.000000	100.358143
3601.000000	100.363826
3600.000000	100.372881
3599.000000	100.381351
3598.000000	100.385768
3597.000000	100.386616
3596.000000	100.388116
3595.000000	100.394361
3594.000000	100.404891
3593.000000	100.414993
3592.000000	100.420882
3591.000000	100.422898
3590.000000	100.424322
3589.000000	100.427753
3588.000000	100.432276
3587.000000	100.434254
3586.000000	100.431567
3585.000000	100.426217
3584.000000	100.421886
3583.000000	100.420636
3582.000000	100.421994
3581.000000	100.424234
3580.000000	100.425734
3579.000000	100.425463
3578.000000	100.423307
3577.000000	100.420318
3576.000000	100.418329
3575.000000	100.418761
3574.000000	100.421711
3573.000000	100.425897
3572.000000	100.429223
3571.000000	100.429354
3570.000000	100.424727
3569.000000	100.416359
3568.000000	100.408258
3567.000000	100.403994
3566.000000	100.402967
3565.000000	100.402194
3564.000000	100.400626
3563.000000	100.399457
3562.000000	100.399278
3561.000000	100.398797
3560.000000	100.396704
3559.000000	100.393594
3558.000000	100.391128
3557.000000	100.389520
3556.000000	100.386768
3555.000000	100.380778
3554.000000	100.372128
3553.000000	100.364179
3552.000000	100.359966
3551.000000	100.359387
3550.000000	100.360065
3549.000000	100.360232
3548.000000	100.359861
3547.000000	100.359181
3546.000000	100.357376
3545.000000	100.353552
3544.000000	100.348476
3543.000000	100.344364
3542.000000	100.342791
3541.000000	100.343399
3540.000000	100.344501
3539.000000	100.344723
3538.000000	100.344019
3537.000000	100.343241
3536.000000	100.342989
3535.000000	100.342950
3534.000000	100.342229
3533.000000	100.340314
3532.000000	100.337648
3531.000000	100.335256
3530.000000	100.333747
3529.000000	100.332609
3528.000000	100.330625
3527.000000	100.327098
3526.000000	100.322650
3525.000000	100.318732
3524.000000	100.316277
3523.000000	100.314926
3522.000000	100.313652
3521.000000	100.311913
3520.000000	100.309935
3519.000000	100.308041
3518.000000	100.306154
3517.000000	100.304131
3516.000000	100.302291
3515.000000	100.301220
3514.000000	100.301040
3513.000000	100.301241
3512.000000	100.301303
3511.000000	100.301130
3510.000000	100.300694
3509.000000	100.299560
3508.000000	100.297171
3507.000000	100.293526
3506.000000	100.289428
3505.000000	100.286058
3504.000000	100.284188
3503.000000	100.283674
3502.000000	100.283540
3501.000000	100.282705
3500.000000	100.280824
3499.000000	100.278452
3498.000000	100.276487
3497.000000	100.275328
3496.000000	100.274529
3495.000000	100.273296
3494.000000	100.271366
3493.000000	100.269389
3492.000000	100.268426
3491.000000	100.268954
3490.000000	100.270143
3489.000000	100.270228
3488.000000	100.267963
3487.000000	100.263563
3486.000000	100.258425
3485.000000	100.253948
3484.000000	100.250626
3483.000000	100.248207
3482.000000	100.246215
3481.000000	100.244248
3480.000000	100.242039
3479.000000	100.239458
3478.000000	100.236512
3477.000000	100.233348
3476.000000	100.230243
3475.000000	100.227511
3474.000000	100.225283
3473.000000	100.223327
3472.000000	100.221203
3471.000000	100.218634
3470.000000	100.215724
3469.000000	100.212816
3468.000000	100.210206
3467.000000	100.207966
3466.000000	100.205945
3465.000000	100.203871
3464.000000	100.201498
3463.000000	100.198795
3462.000000	100.195996
3461.000000	100.193438
3460.000000	100.191244
3459.000000	100.189168
3458.000000	100.186760
3457.000000	100.183769
3456.000000	100.180363
3455.000000	100.177061
3454.000000	100.174369
3453.000000	100.172428
3452.000000	100.170864
3451.000000	100.169042
3450.000000	100.166678
3449.000000	100.164029
3448.000000	100.161426
3447.000000	100.158693
3446.000000	100.155308
3445.000000	100.151134
3444.000000	100.146802
3443.000000	100.143228
3442.000000	100.140777
3441.000000	100.138922
3440.000000	100.136687
3439.000000	100.133460
3438.000000	100.129431
3437.000000	100.125495
3436.000000	100.122708
3435.000000	100.121529
3434.000000	100.121339
3433.000000	100.120751
3432.000000	100.118660
3431.000000	100.115094
3430.000000	100.111105
3429.000000	100.107836
3428.000000	100.105739
3427.000000	100.104673
3426.000000	100.104468
3425.000000	100.105054
3424.000000	100.106035
3423.000000	100.106515
3422.000000	100.105639
3421.000000	100.103206
3420.000000	100.099574
3419.000000	100.095071
3418.000000	100.089774
3417.000000	100.083877
3416.000000	100.077912
3415.000000	100.072464
3414.000000	100.067878
3413.000000	100.064459
3412.000000	100.062845
3411.000000	100.063705
3410.000000	100.066865
3409.000000	100.070981
3408.000000	100.074191
3407.000000	100.075262
3406.000000	100.074241
3405.000000	100.072132
3404.000000	100.070079
3403.000000	100.068820
3402.000000	100.068651
3401.000000	100.069554
3400.000000	100.071213
3399.000000	100.072943
3398.000000	100.073800
3397.000000	100.072893
3396.000000	100.069912
3395.000000	100.065667
3394.000000	100.062004
3393.000000	100.060652
3392.000000	100.061774
3391.000000	100.063818
3390.000000	100.065097
3389.000000	100.065463
3388.000000	100.066063
3387.000000	100.067660
3386.000000	100.069784
3385.000000	100.071534
3384.000000	100.072606
3383.000000	100.073125
3382.000000	100.072890
3381.000000	100.071502
3380.000000	100.069259
3379.000000	100.067408
3378.000000	100.067150
3377.000000	100.068604
3376.000000	100.070904
3375.000000	100.073056
3374.000000	100.074539
3373.000000	100.075224
3372.000000	100.075164
3371.000000	100.074672
3370.000000	100.074426
3369.000000	100.075215
3368.000000	100.077440
3367.000000	100.080801
3366.000000	100.084453
3365.000000	100.087543
3364.000000	100.089696
3363.000000	100.091040
3362.000000	100.091885
3361.000000	100.092435
3360.000000	100.092812
3359.000000	100.093269
3358.000000	100.094276
3357.000000	100.096294
3356.000000	100.099356
3355.000000	100.102803
3354.000000	100.105572
3353.000000	100.107022
3352.000000	100.107456
3351.000000	100.107807
3350.000000	100.108730
3349.000000	100.110056
3348.000000	100.111130
3347.000000	100.111577
3346.000000	100.111718
3345.000000	100.112243
3344.000000	100.113482
3343.000000	100.115080
3342.000000	100.116456
3341.000000	100.117555
3340.000000	100.118934
3339.000000	100.121076
3338.000000	100.123851
3337.000000	100.126709
3336.000000	100.129230
3335.000000	100.131265
3334.000000	100.132707
3333.000000	100.133500
3332.000000	100.133915
3331.000000	100.134592
3330.000000	100.136084
3329.000000	100.138448
3328.000000	100.141303
3327.000000	100.144119
3326.000000	100.146461
3325.000000	100.148112
3324.000000	100.149203
3323.000000	100.150120
3322.000000	100.151151
3321.000000	100.152285
3320.000000	100.153511
3319.000000	100.155096
3318.000000	100.157272
3317.000000	100.159752
3316.000000	100.161933
3315.000000	100.163678
3314.000000	100.165495
3313.000000	100.167722
3312.000000	100.169889
3311.000000	100.171229
3310.000000	100.171611
3309.000000	100.171622
3308.000000	100.171867
3307.000000	100.172567
3306.000000	100.173941
3305.000000	100.176472
3304.000000	100.180407
3303.000000	100.185215
3302.000000	100.189814
3301.000000	100.193379
3300.000000	100.195766
3299.000000	100.197277
3298.000000	100.198360
3297.000000	100.199470
3296.000000	100.201035
3295.000000	100.203313
3294.000000	100.206221
3293.000000	100.209299
3292.000000	100.211979
3291.000000	100.214028
3290.000000	100.215788
3289.000000	100.217903
3288.000000	100.220687
3287.000000	100.223803
3286.000000	100.226623
3285.000000	100.228965
3284.000000	100.231267
3283.000000	100.234033
3282.000000	100.237282
3281.000000	100.240636
3280.000000	100.243780
3279.000000	100.246642
3278.000000	100.249193
3277.000000	100.251376
3276.000000	100.253293
3275.000000	100.255288
3274.000000	100.257668
3273.000000	100.260448
3272.000000	100.263415
3271.000000	100.266342
3270.000000	100.269084
3269.000000	100.271583
3268.000000	100.273914
3267.000000	100.276296
3266.000000	100.278928
3265.000000	100.281820
3264.000000	100.284827
3263.000000	100.287813
3262.000000	100.290727
3261.000000	100.293588
3260.000000	100.296480
3259.000000	100.299486
3258.000000	100.302492
3257.000000	100.305113
3256.000000	100.307025
3255.000000	100.308393
3254.000000	100.309913
3253.000000	100.312191
3252.000000	100.315273
3251.000000	100.318704
3250.000000	100.321998
3249.000000	100.325023
3248.000000	100.327930
3247.000000	100.330921
3246.000000	100.334050
3245.000000	100.337145
3244.000000	100.339962
3243.000000	100.342508
3242.000000	100.345159
3241.000000	100.348348
3240.000000	100.352144
3239.000000	100.356139
3238.000000	100.359714
3237.000000	100.362442
3236.000000	100.364402
3235.000000	100.366227
3234.000000	100.368620
3233.000000	100.371648
3232.000000	100.374650
3231.000000	100.376973
3230.000000	100.378668
3229.000000	100.380320
3228.000000	100.382355
3227.000000	100.384734
3226.000000	100.387212
3225.000000	100.389687
3224.000000	100.392307
3223.000000	100.395396
3222.000000	100.399175
3221.000000	100.403370
3220.000000	100.407231
3219.000000	100.410240
3218.000000	100.412735
3217.000000	100.415570
3216.000000	100.419082
3215.000000	100.422582
3214.000000	100.424932
3213.000000	100.425514
3212.000000	100.424702
3211.000000	100.423744
3210.000000	100.424224
3209.000000	100.427130
3208.000000	100.432115
3207.000000	100.437637
3206.000000	100.442261
3205.000000	100.445968
3204.000000	100.449780
3203.000000	100.454201
3202.000000	100.458555
3201.000000	100.462054
3200.000000	100.465050
3199.000000	100.468711
3198.000000	100.473662
3197.000000	100.479456
3196.000000	100.485247
3195.000000	100.490453
3194.000000	100.494668
3193.000000	100.497539
3192.000000	100.499170
3191.000000	100.500359
3190.000000	100.501982
3189.000000	100.504217
3188.000000	100.506738
3187.000000	100.509498
3186.000000	100.512957
3185.000000	100.517452
3184.000000	100.522572
3183.000000	100.527253
3182.000000	100.530622
3181.000000	100.532768
3180.000000	100.534757
3179.000000	100.537685
3178.000000	100.541589
3177.000000	100.545503
3176.000000	100.548640
3175.000000	100.551223
3174.000000	100.553990
3173.000000	100.557196
3172.000000	100.560472
3171.000000	100.563502
3170.000000	100.566377
3169.000000	100.569298
3168.000000	100.572281
3167.000000	100.575261
3166.000000	100.578251
3165.000000	100.581275
3164.000000	100.584289
3163.000000	100.587226
3162.000000	100.590098
3161.000000	100.592972
3160.000000	100.595881
3159.000000	100.598779
3158.000000	100.601598
3157.000000	100.604307
3156.000000	100.606935
3155.000000	100.609589
3154.000000	100.612420
3153.000000	100.615530
3152.000000	100.618877
3151.000000	100.622257
3150.000000	100.625428
3149.000000	100.628257
3148.000000	100.630757
3147.000000	100.633068
3146.000000	100.635366
3145.000000	100.637813
3144.000000	100.640500
3143.000000	100.643368
3142.000000	100.646207
3141.000000	100.648885
3140.000000	100.651617
3139.000000	100.654811
3138.000000	100.658537
3137.000000	100.662282
3136.000000	100.665378
3135.000000	100.667717
3134.000000	100.669911
3133.000000	100.672712
3132.000000	100.676288
3131.000000	100.680119
3130.000000	100.683494
3129.000000	100.686161
3128.000000	100.688493
3127.000000	100.691146
3126.000000	100.694437
3125.000000	100.698025
3124.000000	100.701255
3123.000000	100.703825
3122.000000	100.706012
3121.000000	100.708219
3120.000000	100.710536
3119.000000	100.712928
3118.000000	100.715599
3117.000000	100.718796
3116.000000	100.722278
3115.000000	100.725342
3114.000000	100.727495
3113.000000	100.728894
3112.000000	100.730117
3111.000000	100.731645
3110.000000	100.733677
3109.000000	100.736266
3108.000000	100.739331
3107.000000	100.742461
3106.000000	100.744894
3105.000000	100.745995
3104.000000	100.745884
3103.000000	100.745561
3102.000000	100.746114
3101.000000	100.747711
3100.000000	100.749618
3099.000000	100.751205
3098.000000	100.752638
3097.000000	100.754408
3096.000000	100.756538
3095.000000	100.758706
3094.000000	100.760966
3093.000000	100.763771
3092.000000	100.767192
3091.000000	100.770597
3090.000000	100.773280
3089.000000	100.775121
3088.000000	100.776440
3087.000000	100.777490
3086.000000	100.778361
3085.000000	100.779179
3084.000000	100.780094
3083.000000	100.781083
3082.000000	100.781932
3081.000000	100.782450
3080.000000	100.782658
3079.000000	100.782814
3078.000000	100.783342
3077.000000	100.784560
3076.000000	100.786385
3075.000000	100.788326
3074.000000	100.789847
3073.000000	100.790825
3072.000000	100.791625
3071.000000	100.792765
3070.000000	100.794463
3069.000000	100.796516
3068.000000	100.798499
3067.000000	100.800109
3066.000000	100.801339
3065.000000	100.802354
3064.000000	100.803310
3063.000000	100.804284
3062.000000	100.805333
3061.000000	100.806546
3060.000000	100.808005
3059.000000	100.809688
3058.000000	100.811388
3057.000000	100.812806
3056.000000	100.813800
3055.000000	100.814514
3054.000000	100.815232
3053.000000	100.816060
3052.000000	100.816856
3051.000000	100.817483
3050.000000	100.818096
3049.000000	100.819080
3048.000000	100.820638
3047.000000	100.822424
3046.000000	100.823684
3045.000000	100.823951
3044.000000	100.823673
3043.000000	100.824125
3042.000000	100.826444
3041.000000	100.830508
3040.000000	100.834600
3039.000000	100.836590
3038.000000	100.835615
3037.000000	100.832834
3036.000000	100.830526
3035.000000	100.830179
3034.000000	100.831510
3033.000000	100.833155
3032.000000	100.834105
3031.000000	100.834326
3030.000000	100.834102
3029.000000	100.833291
3028.000000	100.831627
3027.000000	100.829541
3026.000000	100.828121
3025.000000	100.828160
3024.000000	100.829691
3023.000000	100.832550
3022.000000	100.836739
3021.000000	100.841684
3020.000000	100.845611
3019.000000	100.846456
3018.000000	100.843393
3017.000000	100.837165
3016.000000	100.829247
3015.000000	100.821324
3014.000000	100.815249
3013.000000	100.812497
3012.000000	100.813413
3011.000000	100.817312
3010.000000	100.822954
3009.000000	100.828379
3008.000000	100.831043
3007.000000	100.829555
3006.000000	100.825259
3005.000000	100.820842
3004.000000	100.817261
3003.000000	100.813415
3002.000000	100.809045
3001.000000	100.806005
3000.000000	100.805474
2999.000000	100.805298
2998.000000	100.801880
2997.000000	100.794283
2996.000000	100.785102
2995.000000	100.777361
2994.000000	100.771604
2993.000000	100.766258
2992.000000	100.759706
2991.000000	100.751350
2990.000000	100.741188
2989.000000	100.729127
2988.000000	100.714990
2987.000000	100.699117
2986.000000	100.682722
2985.000000	100.667318
2984.000000	100.653575
2983.000000	100.640833
2982.000000	100.627903
2981.000000	100.614443
2980.000000	100.601674
2979.000000	100.591842
2978.000000	100.586615
2977.000000	100.585572
2976.000000	100.586573
2975.000000	100.588418
2974.000000	100.592983
2973.000000	100.603526
2972.000000	100.620720
2971.000000	100.641554
2970.000000	100.662780
2969.000000	100.684237
2968.000000	100.707478
2967.000000	100.731977
2966.000000	100.754287
2965.000000	100.770981
2964.000000	100.781330
2963.000000	100.787314
2962.000000	100.792321
2961.000000	100.799739
2960.000000	100.811078
2959.000000	100.824469
2958.000000	100.835899
2957.000000	100.842924
2956.000000	100.846875
2955.000000	100.850840
2954.000000	100.855751
2953.000000	100.859051
2952.000000	100.857250
2951.000000	100.849540
2950.000000	100.839192
2949.000000	100.831638
2948.000000	100.830558
2947.000000	100.834953
2946.000000	100.839762
2945.000000	100.839881
2944.000000	100.834238
2943.000000	100.826432
2942.000000	100.821611
2941.000000	100.822572
2940.000000	100.828345
2939.000000	100.835637
2938.000000	100.841267
2937.000000	100.843693
2936.000000	100.843223
2935.000000	100.841560
2934.000000	100.841005
2933.000000	100.843265
2932.000000	100.848321
2931.000000	100.854598
2930.000000	100.860706
2929.000000	100.867145
2928.000000	100.875957
2927.000000	100.888332
2926.000000	100.902523
2925.000000	100.914367
2924.000000	100.920359
2923.000000	100.920535
2922.000000	100.918541
2921.000000	100.918606
2920.000000	100.922093
2919.000000	100.927009
2918.000000	100.930421
2917.000000	100.930673
2916.000000	100.927399
2915.000000	100.920588
2914.000000	100.910674
2913.000000	100.899301
2912.000000	100.889033
2911.000000	100.881876
2910.000000	100.878104
2909.000000	100.876255
2908.000000	100.874039
2907.000000	100.869767
2906.000000	100.863694
2905.000000	100.857986
2904.000000	100.854751
2903.000000	100.853969
2902.000000	100.853799
2901.000000	100.852603
2900.000000	100.850143
2899.000000	100.846996
2898.000000	100.843810
2897.000000	100.841546
2896.000000	100.841422
2895.000000	100.843778
2894.000000	100.847312
2893.000000	100.850075
2892.000000	100.851091
2891.000000	100.850682
2890.000000	100.849692
2889.000000	100.848963
2888.000000	100.849163
2887.000000	100.850296
2886.000000	100.851479
2885.000000	100.851994
2884.000000	100.852578
2883.000000	100.854751
2882.000000	100.858504
2881.000000	100.861530
2880.000000	100.861750
2879.000000	100.860359
2878.000000	100.861177
2877.000000	100.866618
2876.000000	100.875045
2875.000000	100.882410
2874.000000	100.886052
2873.000000	100.886254
2872.000000	100.884651
2871.000000	100.882614
2870.000000	100.881583
2869.000000	100.883479
2868.000000	100.889236
2867.000000	100.897174
2866.000000	100.904210
2865.000000	100.909195
2864.000000	100.914069
2863.000000	100.921201
2862.000000	100.930520
2861.000000	100.939986
2860.000000	100.948049
2859.000000	100.954390
2858.000000	100.958769
2857.000000	100.960887
2856.000000	100.961827
2855.000000	100.964240
2854.000000	100.969890
2853.000000	100.977499
2852.000000	100.984092
2851.000000	100.988167
2850.000000	100.990501
2849.000000	100.992050
2848.000000	100.992436
2847.000000	100.991101
2846.000000	100.988787
2845.000000	100.986696
2844.000000	100.984659
2843.000000	100.981365
2842.000000	100.976492
2841.000000	100.971662
2840.000000	100.969018
2839.000000	100.969382
2838.000000	100.971951
2837.000000	100.975156
2836.000000	100.977671
2835.000000	100.979317
2834.000000	100.981228
2833.000000	100.984478
2832.000000	100.988208
2831.000000	100.989912
2830.000000	100.988288
2829.000000	100.985156
2828.000000	100.983780
2827.000000	100.985575
2826.000000	100.989224
2825.000000	100.992537
2824.000000	100.994362
2823.000000	100.994857
2822.000000	100.994927
2821.000000	100.995680
2820.000000	100.997710
2819.000000	101.000599
2818.000000	101.003532
2817.000000	101.006413
2816.000000	101.009742
2815.000000	101.013309
2814.000000	101.015790
2813.000000	101.016101
2812.000000	101.014644
2811.000000	101.012956
2810.000000	101.012367
2809.000000	101.013202
2808.000000	101.015076
2807.000000	101.017414
2806.000000	101.019721
2805.000000	101.021725
2804.000000	101.023400
2803.000000	101.024786
2802.000000	101.025779
2801.000000	101.026171
2800.000000	101.025955
2799.000000	101.025548
2798.000000	101.025592
2797.000000	101.026456
2796.000000	101.027972
2795.000000	101.029662
2794.000000	101.031231
2793.000000	101.032756
2792.000000	101.034382
2791.000000	101.035946
2790.000000	101.037070
2789.000000	101.037577
2788.000000	101.037655
2787.000000	101.037679
2786.000000	101.037970
2785.000000	101.038737
2784.000000	101.040046
2783.000000	101.041693
2782.000000	101.043247
2781.000000	101.044361
2780.000000	101.045009
2779.000000	101.045366
2778.000000	101.045587
2777.000000	101.045747
2776.000000	101.045901
2775.000000	101.046073
2774.000000	101.046238
2773.000000	101.046383
2772.000000	101.046507
2771.000000	101.046530
2770.000000	101.046380
2769.000000	101.046277
2768.000000	101.046712
2767.000000	101.047924
2766.000000	101.049498
2765.000000	101.050734
2764.000000	101.051443
2763.000000	101.052047
2762.000000	101.052911
2761.000000	101.053862
2760.000000	101.054495
2759.000000	101.054782
2758.000000	101.055133
2757.000000	101.055848
2756.000000	101.056682
2755.000000	101.057112
2754.000000	101.056990
2753.000000	101.056785
2752.000000	101.057125
2751.000000	101.058174
2750.000000	101.059526
2749.000000	101.060595
2748.000000	101.061146
2747.000000	101.061414
2746.000000	101.061889
2745.000000	101.062926
2744.000000	101.064458
2743.000000	101.065976
2742.000000	101.066929
2741.000000	101.067186
2740.000000	101.067106
2739.000000	101.067091
2738.000000	101.067124
2737.000000	101.066864
2736.000000	101.066149
2735.000000	101.065318
2734.000000	101.065017
2733.000000	101.065636
2732.000000	101.066963
2731.000000	101.068404
2730.000000	101.069529
2729.000000	101.070382
2728.000000	101.071256
2727.000000	101.072266
2726.000000	101.073218
2725.000000	101.073791
2724.000000	101.073779
2723.000000	101.073311
2722.000000	101.072942
2721.000000	101.073318
2720.000000	101.074560
2719.000000	101.076039
2718.000000	101.076945
2717.000000	101.077116
2716.000000	101.077040
2715.000000	101.077149
2714.000000	101.077412
2713.000000	101.077642
2712.000000	101.077831
2711.000000	101.078040
2710.000000	101.078223
2709.000000	101.078355
2708.000000	101.078556
2707.000000	101.078918
2706.000000	101.079316
2705.000000	101.079544
2704.000000	101.079573
2703.000000	101.079575
2702.000000	101.079779
2701.000000	101.080273
2700.000000	101.080842
2699.000000	101.081024
2698.000000	101.080533
2697.000000	101.079589
2696.000000	101.078702
2695.000000	101.078081
2694.000000	101.077506
2693.000000	101.076806
2692.000000	101.076220
2691.000000	101.076104
2690.000000	101.076452
2689.000000	101.076857
2688.000000	101.076887
2687.000000	101.076452
2686.000000	101.075835
2685.000000	101.075487
2684.000000	101.075643
2683.000000	101.076178
2682.000000	101.076708
2681.000000	101.076928
2680.000000	101.076795
2679.000000	101.076396
2678.000000	101.075796
2677.000000	101.075140
2676.000000	101.074809
2675.000000	101.075166
2674.000000	101.076107
2673.000000	101.077030
2672.000000	101.077483
2671.000000	101.077530
2670.000000	101.077403
2669.000000	101.077168
2668.000000	101.076925
2667.000000	101.076929
2666.000000	101.077118
2665.000000	101.076853
2664.000000	101.075628
2663.000000	101.073891
2662.000000	101.072672
2661.000000	101.072404
2660.000000	101.072659
2659.000000	101.073070
2658.000000	101.073959
2657.000000	101.075730
2656.000000	101.078047
2655.000000	101.079996
2654.000000	101.080936
2653.000000	101.080864
2652.000000	101.080056
2651.000000	101.078729
2650.000000	101.077136
2649.000000	101.075716
2648.000000	101.074855
2647.000000	101.074591
2646.000000	101.074841
2645.000000	101.075907
2644.000000	101.078354
2643.000000	101.082233
2642.000000	101.086624
2641.000000	101.090113
2640.000000	101.091763
2639.000000	101.091553
2638.000000	101.090374
2637.000000	101.089606
2636.000000	101.089842
2635.000000	101.089879
2634.000000	101.087679
2633.000000	101.082716
2632.000000	101.076913
2631.000000	101.072788
2630.000000	101.071214
2629.000000	101.071572
2628.000000	101.072939
2627.000000	101.074239
2626.000000	101.074070
2625.000000	101.071851
2624.000000	101.068944
2623.000000	101.067361
2622.000000	101.067381
2621.000000	101.067608
2620.000000	101.067226
2619.000000	101.066830
2618.000000	101.066916
2617.000000	101.067095
2616.000000	101.067280
2615.000000	101.068282
2614.000000	101.070546
2613.000000	101.073337
2612.000000	101.075782
2611.000000	101.077788
2610.000000	101.079354
2609.000000	101.079953
2608.000000	101.079290
2607.000000	101.077848
2606.000000	101.076079
2605.000000	101.073877
2604.000000	101.071345
2603.000000	101.069086
2602.000000	101.067135
2601.000000	101.064641
2600.000000	101.061410
2599.000000	101.058774
2598.000000	101.057901
2597.000000	101.058089
2596.000000	101.057809
2595.000000	101.056946
2594.000000	101.056804
2593.000000	101.058156
2592.000000	101.060425
2591.000000	101.062613
2590.000000	101.064099
2589.000000	101.064482
2588.000000	101.063555
2587.000000	101.061842
2586.000000	101.060464
2585.000000	101.060091
2584.000000	101.060372
2583.000000	101.060468
2582.000000	101.059759
2581.000000	101.058077
2580.000000	101.055767
2579.000000	101.053728
2578.000000	101.052804
2577.000000	101.052931
2576.000000	101.053184
2575.000000	101.052903
2574.000000	101.052493
2573.000000	101.052776
2572.000000	101.053820
2571.000000	101.054792
2570.000000	101.054851
2569.000000	101.053939
2568.000000	101.052654
2567.000000	101.051631
2566.000000	101.051122
2565.000000	101.050983
2564.000000	101.050859
2563.000000	101.050386
2562.000000	101.049424
2561.000000	101.048247
2560.000000	101.047450
2559.000000	101.047463
2558.000000	101.048172
2557.000000	101.049150
2556.000000	101.050174
2555.000000	101.051335
2554.000000	101.052653
2553.000000	101.053808
2552.000000	101.054395
2551.000000	101.054325
2550.000000	101.053788
2549.000000	101.052957
2548.000000	101.051940
2547.000000	101.051015
2546.000000	101.050565
2545.000000	101.050606
2544.000000	101.050581
2543.000000	101.049923
2542.000000	101.048782
2541.000000	101.048000
2540.000000	101.048201
2539.000000	101.049191
2538.000000	101.050289
2537.000000	101.051097
2536.000000	101.051721
2535.000000	101.052259
2534.000000	101.052510
2533.000000	101.052336
2532.000000	101.052028
2531.000000	101.052067
2530.000000	101.052561
2529.000000	101.053120
2528.000000	101.053284
2527.000000	101.052963
2526.000000	101.052462
2525.000000	101.052187
2524.000000	101.052322
2523.000000	101.052728
2522.000000	101.053138
2521.000000	101.053489
2520.000000	101.053976
2519.000000	101.054706
2518.000000	101.055398
2517.000000	101.055606
2516.000000	101.055220
2515.000000	101.054630
2514.000000	101.054376
2513.000000	101.054666
2512.000000	101.055368
2511.000000	101.056289
2510.000000	101.057338
2509.000000	101.058458
2508.000000	101.059517
2507.000000	101.060324
2506.000000	101.060732
2505.000000	101.060840
2504.000000	101.061052
2503.000000	101.061740
2502.000000	101.062793
2501.000000	101.063685
2500.000000	101.064066
2499.000000	101.064098
2498.000000	101.064083
2497.000000	101.064043
2496.000000	101.063939
2495.000000	101.064053
2494.000000	101.064746
2493.000000	101.065904
2492.000000	101.066984
2491.000000	101.067685
2490.000000	101.068265
2489.000000	101.069101
2488.000000	101.070229
2487.000000	101.071443
2486.000000	101.072609
2485.000000	101.073656
2484.000000	101.074450
2483.000000	101.074935
2482.000000	101.075330
2481.000000	101.075966
2480.000000	101.076823
2479.000000	101.077406
2478.000000	101.077257
2477.000000	101.076495
2476.000000	101.075798
2475.000000	101.075763
2474.000000	101.076364
2473.000000	101.077103
2472.000000	101.077619
2471.000000	101.077962
2470.000000	101.078273
2469.000000	101.078527
2468.000000	101.078718
2467.000000	101.079092
2466.000000	101.079901
2465.000000	101.081011
2464.000000	101.081936
2463.000000	101.082345
2462.000000	101.082373
2461.000000	101.082451
2460.000000	101.082863
2459.000000	101.083526
2458.000000	101.084167
2457.000000	101.084618
2456.000000	101.084925
2455.000000	101.085241
2454.000000	101.085682
2453.000000	101.086267
2452.000000	101.086944
2451.000000	101.087633
2450.000000	101.088256
2449.000000	101.088775
2448.000000	101.089180
2447.000000	101.089460
2446.000000	101.089593
2445.000000	101.089628
2444.000000	101.089702
2443.000000	101.089920
2442.000000	101.090267
2441.000000	101.090627
2440.000000	101.090898
2439.000000	101.091061
2438.000000	101.091168
2437.000000	101.091295
2436.000000	101.091516
2435.000000	101.091880
2434.000000	101.092344
2433.000000	101.092761
2432.000000	101.092993
2431.000000	101.093026
2430.000000	101.092930
2429.000000	101.092778
2428.000000	101.092678
2427.000000	101.092816
2426.000000	101.093331
2425.000000	101.094124
2424.000000	101.094847
2423.000000	101.095234
2422.000000	101.095306
2421.000000	101.095178
2420.000000	101.094884
2419.000000	101.094460
2418.000000	101.094072
2417.000000	101.093926
2416.000000	101.094084
2415.000000	101.094459
2414.000000	101.094958
2413.000000	101.095509
2412.000000	101.095970
2411.000000	101.096166
2410.000000	101.096054
2409.000000	101.095779
2408.000000	101.095529
2407.000000	101.095394
2406.000000	101.095372
2405.000000	101.095438
2404.000000	101.095501
2403.000000	101.095418
2402.000000	101.095148
2401.000000	101.094904
2400.000000	101.095000
2399.000000	101.095477
2398.000000	101.096046
2397.000000	101.096491
2396.000000	101.097010
2395.000000	101.097845
2394.000000	101.098782
2393.000000	101.099355
2392.000000	101.099485
2391.000000	101.099601
2390.000000	101.100062
2389.000000	101.100742
2388.000000	101.101300
2387.000000	101.101687
2386.000000	101.102213
2385.000000	101.103197
2384.000000	101.104598
2383.000000	101.105899
2382.000000	101.106407
2381.000000	101.105804
2380.000000	101.104537
2379.000000	101.103611
2378.000000	101.103774
2377.000000	101.104997
2376.000000	101.106691
2375.000000	101.108234
2374.000000	101.109271
2373.000000	101.109731
2372.000000	101.109819
2371.000000	101.109841
2370.000000	101.109816
2369.000000	101.109448
2368.000000	101.108708
2367.000000	101.108112
2366.000000	101.108158
2365.000000	101.108807
2364.000000	101.109888
2363.000000	101.111764
2362.000000	101.114909
2361.000000	101.119058
2360.000000	101.123143
2359.000000	101.125594
2358.000000	101.125383
2357.000000	101.122780
2356.000000	101.119526
2355.000000	101.117510
2354.000000	101.116875
2353.000000	101.116867
2352.000000	101.116901
2351.000000	101.116840
2350.000000	101.116748
2349.000000	101.116551
2348.000000	101.116516
2347.000000	101.116705
2346.000000	101.116920
2345.000000	101.116656
2344.000000	101.115625
2343.000000	101.114458
2342.000000	101.113654
2341.000000	101.113398
2340.000000	101.113632
2339.000000	101.114434
2338.000000	101.115460
2337.000000	101.115968
2336.000000	101.115538
2335.000000	101.114498
2334.000000	101.113229
2333.000000	101.112072
2332.000000	101.111275
2331.000000	101.110761
2330.000000	101.109913
2329.000000	101.108065
2328.000000	101.105802
2327.000000	101.104207
2326.000000	101.103802
2325.000000	101.104114
2324.000000	101.104469
2323.000000	101.104735
2322.000000	101.104724
2321.000000	101.104107
2320.000000	101.102688
2319.000000	101.100972
2318.000000	101.099578
2317.000000	101.098538
2316.000000	101.097424
2315.000000	101.095965
2314.000000	101.094269
2313.000000	101.092587
2312.000000	101.091180
2311.000000	101.090172
2310.000000	101.089518
2309.000000	101.089022
2308.000000	101.088498
2307.000000	101.087842
2306.000000	101.086995
2305.000000	101.085924
2304.000000	101.084719
2303.000000	101.083610
2302.000000	101.082738
2301.000000	101.081981
2300.000000	101.081095
2299.000000	101.080010
2298.000000	101.078903
2297.000000	101.077959
2296.000000	101.077190
2295.000000	101.076460
2294.000000	101.075642
2293.000000	101.074708
2292.000000	101.073738
2291.000000	101.072844
2290.000000	101.072076
2289.000000	101.071372
2288.000000	101.070613
2287.000000	101.069741
2286.000000	101.068793
2285.000000	101.067857
2284.000000	101.066985
2283.000000	101.066179
2282.000000	101.065394
2281.000000	101.064579
2280.000000	101.063708
2279.000000	101.062808
2278.000000	101.061931
2277.000000	101.061120
2276.000000	101.060395
2275.000000	101.059769
2274.000000	101.059243
2273.000000	101.058758
2272.000000	101.058184
2271.000000	101.057425
2270.000000	101.056513
2269.000000	101.055587
2268.000000	101.054744
2267.000000	101.053971
2266.000000	101.053208
2265.000000	101.052434
2264.000000	101.051691
2263.000000	101.051018
2262.000000	101.050391
2261.000000	101.049745
2260.000000	101.049049
2259.000000	101.048331
2258.000000	101.047606
2257.000000	101.046848
2256.000000	101.046077
2255.000000	101.045414
2254.000000	101.044965
2253.000000	101.044666
2252.000000	101.044322
2251.000000	101.043798
2250.000000	101.043128
2249.000000	101.042452
2248.000000	101.041893
2247.000000	101.041484
2246.000000	101.041185
2245.000000	101.040919
2244.000000	101.040599
2243.000000	101.040172
2242.000000	101.039641
2241.000000	101.039069
2240.000000	101.038546
2239.000000	101.038123
2238.000000	101.037797
2237.000000	101.037538
2236.000000	101.037334
2235.000000	101.037183
2234.000000	101.037061
2233.000000	101.036909
2232.000000	101.036681
2231.000000	101.036385
2230.000000	101.036062
2229.000000	101.035753
2228.000000	101.035485
2227.000000	101.035274
2226.000000	101.035112
2225.000000	101.034969
2224.000000	101.034807
2223.000000	101.034621
2222.000000	101.034427
2221.000000	101.034255
2220.000000	101.034118
2219.000000	101.034014
2218.000000	101.033925
2217.000000	101.033845
2216.000000	101.033782
2215.000000	101.033741
2214.000000	101.033715
2213.000000	101.033692
2212.000000	101.033663
2211.000000	101.033627
2210.000000	101.033587
2209.000000	101.033549
2208.000000	101.033518
2207.000000	101.033497
2206.000000	101.033486
2205.000000	101.033480
2204.000000	101.033476
2203.000000	101.033471
2202.000000	101.033465
2201.000000	101.033461
2200.000000	101.033462
2199.000000	101.033472
2198.000000	101.033489
2197.000000	101.033509
2196.000000	101.033527
2195.000000	101.033541
2194.000000	101.033552
2193.000000	101.033566
2192.000000	101.033583
2191.000000	101.033604
2190.000000	101.033630
2189.000000	101.033663
2188.000000	101.033706
2187.000000	101.033758
2186.000000	101.033818
2185.000000	101.033884
2184.000000	101.033952
2183.000000	101.034018
2182.000000	101.034082
2181.000000	101.034154
2180.000000	101.034245
2179.000000	101.034355
2178.000000	101.034477
2177.000000	101.034605
2176.000000	101.034737
2175.000000	101.034865
2174.000000	101.034981
2173.000000	101.035081
2172.000000	101.035168
2171.000000	101.035232
2170.000000	101.035241
2169.000000	101.035191
2168.000000	101.035157
2167.000000	101.035246
2166.000000	101.035493
2165.000000	101.035804
2164.000000	101.036054
2163.000000	101.036204
2162.000000	101.036304
2161.000000	101.036418
2160.000000	101.036591
2159.000000	101.036855
2158.000000	101.037200
2157.000000	101.037522
2156.000000	101.037704
2155.000000	101.037795
2154.000000	101.038019
2153.000000	101.038551
2152.000000	101.039352
2151.000000	101.040185
2150.000000	101.040813
2149.000000	101.041133
2148.000000	101.041184
2147.000000	101.041125
2146.000000	101.041159
2145.000000	101.041412
2144.000000	101.041884
2143.000000	101.042493
2142.000000	101.043165
2141.000000	101.043867
2140.000000	101.044559
2139.000000	101.045166
2138.000000	101.045598
2137.000000	101.045818
2136.000000	101.045916
2135.000000	101.046072
2134.000000	101.046394
2133.000000	101.046828
2132.000000	101.047308
2131.000000	101.047920
2130.000000	101.048807
2129.000000	101.049949
2128.000000	101.051176
2127.000000	101.052365
2126.000000	101.053462
2125.000000	101.054348
2124.000000	101.054886
2123.000000	101.055140
2122.000000	101.055387
2121.000000	101.055851
2120.000000	101.056509
2119.000000	101.057252
2118.000000	101.058074
2117.000000	101.059000
2116.000000	101.059939
2115.000000	101.060758
2114.000000	101.061471
2113.000000	101.062222
2112.000000	101.063091
2111.000000	101.063999
2110.000000	101.064811
2109.000000	101.065486
2108.000000	101.066077
2107.000000	101.066679
2106.000000	101.067366
2105.000000	101.068149
2104.000000	101.068983
2103.000000	101.069805
2102.000000	101.070584
2101.000000	101.071329
2100.000000	101.072063
2099.000000	101.072798
2098.000000	101.073536
2097.000000	101.074285
2096.000000	101.075050
2095.000000	101.075834
2094.000000	101.076643
2093.000000	101.077491
2092.000000	101.078381
2091.000000	101.079255
2090.000000	101.080018
2089.000000	101.080641
2088.000000	101.081216
2087.000000	101.081868
2086.000000	101.082656
2085.000000	101.083564
2084.000000	101.084512
2083.000000	101.085316
2082.000000	101.085773
2081.000000	101.085916
2080.000000	101.086099
2079.000000	101.086612
2078.000000	101.087350
2077.000000	101.088005
2076.000000	101.088484
2075.000000	101.088875
2074.000000	101.089125
2073.000000	101.089118
2072.000000	101.089119
2071.000000	101.089726
2070.000000	101.091189
2069.000000	101.092949
2068.000000	101.094088
2067.000000	101.094130
2066.000000	101.093264
2065.000000	101.092084
2064.000000	101.091265
2063.000000	101.091267
2062.000000	101.092058
2061.000000	101.093093
2060.000000	101.093793
2059.000000	101.094076
2058.000000	101.094305
2057.000000	101.094799
2056.000000	101.095631
2055.000000	101.096732
2054.000000	101.097821
2053.000000	101.098244
2052.000000	101.097377
2051.000000	101.095362
2050.000000	101.093205
2049.000000	101.091838
2048.000000	101.091257
2047.000000	101.090899
2046.000000	101.090543
2045.000000	101.090466
2044.000000	101.090745
2043.000000	101.090889
2042.000000	101.090359
2041.000000	101.089204
2040.000000	101.087947
2039.000000	101.087005
2038.000000	101.086413
2037.000000	101.086025
2036.000000	101.085695
2035.000000	101.085271
2034.000000	101.084644
2033.000000	101.083881
2032.000000	101.083209
2031.000000	101.082787
2030.000000	101.082593
2029.000000	101.082547
2028.000000	101.082567
2027.000000	101.082464
2026.000000	101.081956
2025.000000	101.080932
2024.000000	101.079632
2023.000000	101.078488
2022.000000	101.077745
2021.000000	101.077329
2020.000000	101.077020
2019.000000	101.076617
2018.000000	101.076001
2017.000000	101.075144
2016.000000	101.074138
2015.000000	101.073162
2014.000000	101.072346
2013.000000	101.071689
2012.000000	101.071109
2011.000000	101.070532
2010.000000	101.069922
2009.000000	101.069267
2008.000000	101.068557
2007.000000	101.067799
2006.000000	101.067050
2005.000000	101.066383
2004.000000	101.065816
2003.000000	101.065288
2002.000000	101.064719
2001.000000	101.064090
2000.000000	101.063452
1999.000000	101.062870
1998.000000	101.062369
1997.000000	101.061933
1996.000000	101.061532
1995.000000	101.061139
1994.000000	101.060729
1993.000000	101.060271
1992.000000	101.059755
1991.000000	101.059204
1990.000000	101.058658
1989.000000	101.058145
1988.000000	101.057658
1987.000000	101.057181
1986.000000	101.056698
1985.000000	101.056206
1984.000000	101.055708
1983.000000	101.055203
1982.000000	101.054697
1981.000000	101.054202
1980.000000	101.053720
1979.000000	101.053232
1978.000000	101.052704
1977.000000	101.052128
1976.000000	101.051522
1975.000000	101.050913
1974.000000	101.050318
1973.000000	101.049735
1972.000000	101.049157
1971.000000	101.048570
1970.000000	101.047970
1969.000000	101.047358
1968.000000	101.046738
1967.000000	101.046105
1966.000000	101.045455
1965.000000	101.044793
1964.000000	101.044134
1963.000000	101.043488
1962.000000	101.042852
1961.000000	101.042223
1960.000000	101.041605
1959.000000	101.040986
1958.000000	101.040325
1957.000000	101.039599
1956.000000	101.038846
1955.000000	101.038065
1954.000000	101.037129
1953.000000	101.035948
1952.000000	101.034748
1951.000000	101.033911
1950.000000	101.033486
1949.000000	101.033096
1948.000000	101.032488
1947.000000	101.031881
1946.000000	101.031553
1945.000000	101.031375
1944.000000	101.030936
1943.000000	101.029894
1942.000000	101.028118
1941.000000	101.025837
1940.000000	101.023687
1939.000000	101.022270
1938.000000	101.021548
1937.000000	101.020826
1936.000000	101.019522
1935.000000	101.017770
1934.000000	101.016107
1933.000000	101.014868
1932.000000	101.014137
1931.000000	101.013816
1930.000000	101.013429
1929.000000	101.012408
1928.000000	101.010761
1927.000000	101.009276
1926.000000	101.008651
1925.000000	101.008712
1924.000000	101.008841
1923.000000	101.008711
1922.000000	101.008319
1921.000000	101.007589
1920.000000	101.006363
1919.000000	101.004636
1918.000000	101.002435
1917.000000	100.999777
1916.000000	100.996939
1915.000000	100.994266
1914.000000	100.991817
1913.000000	100.989531
1912.000000	100.987716
1911.000000	100.986776
1910.000000	100.986166
1909.000000	100.984438
1908.000000	100.980835
1907.000000	100.976529
1906.000000	100.973422
1905.000000	100.972034
1904.000000	100.971358
1903.000000	100.970176
1902.000000	100.968195
1901.000000	100.966098
1900.000000	100.964653
1899.000000	100.963846
1898.000000	100.962828
1897.000000	100.960822
1896.000000	100.958186
1895.000000	100.955892
1894.000000	100.953910
1893.000000	100.950926
1892.000000	100.945990
1891.000000	100.939876
1890.000000	100.934652
1889.000000	100.931927
1888.000000	100.931504
1887.000000	100.931757
1886.000000	100.931175
1885.000000	100.929632
1884.000000	100.928397
1883.000000	100.928519
1882.000000	100.929412
1881.000000	100.929708
1880.000000	100.928914
1879.000000	100.927383
1878.000000	100.925019
1877.000000	100.921271
1876.000000	100.916879
1875.000000	100.914134
1874.000000	100.914345
1873.000000	100.916155
1872.000000	100.917062
1871.000000	100.915849
1870.000000	100.913099
1869.000000	100.910418
1868.000000	100.909800
1867.000000	100.912425
1866.000000	100.917228
1865.000000	100.921488
1864.000000	100.923402
1863.000000	100.923582
1862.000000	100.923774
1861.000000	100.924936
1860.000000	100.927140
1859.000000	100.930357
1858.000000	100.934226
1857.000000	100.937775
1856.000000	100.940575
1855.000000	100.943493
1854.000000	100.947031
1853.000000	100.950064
1852.000000	100.951122
1851.000000	100.950490
1850.000000	100.950071
1849.000000	100.950870
1848.000000	100.952042
1847.000000	100.952399
1846.000000	100.951898
1845.000000	100.951261
1844.000000	100.950972
1843.000000	100.951383
1842.000000	100.953026
1841.000000	100.956047
1840.000000	100.960009
1839.000000	100.964358
1838.000000	100.968395
1837.000000	100.971142
1836.000000	100.971910
1835.000000	100.970895
1834.000000	100.969198
1833.000000	100.968112
1832.000000	100.968066
1831.000000	100.968492
1830.000000	100.968627
1829.000000	100.968510
1828.000000	100.969058
1827.000000	100.970591
1826.000000	100.972039
1825.000000	100.971836
1824.000000	100.969842
1823.000000	100.967897
1822.000000	100.967656
1821.000000	100.968873
1820.000000	100.970067
1819.000000	100.970391
1818.000000	100.970184
1817.000000	100.970015
1816.000000	100.970292
1815.000000	100.971245
1814.000000	100.972634
1813.000000	100.973408
1812.000000	100.972579
1811.000000	100.970756
1810.000000	100.969630
1809.000000	100.970152
1808.000000	100.971851
1807.000000	100.973550
1806.000000	100.974162
1805.000000	100.973303
1804.000000	100.972048
1803.000000	100.972343
1802.000000	100.975122
1801.000000	100.978688
1800.000000	100.980055
1799.000000	100.978592
1798.000000	100.976194
1797.000000	100.974418
1796.000000	100.973285
1795.000000	100.972513
1794.000000	100.972514
1793.000000	100.973389
1792.000000	100.974006
1791.000000	100.973859
1790.000000	100.973910
1789.000000	100.974870
1788.000000	100.976625
1787.000000	100.979029
1786.000000	100.981875
1785.000000	100.984393
1784.000000	100.986141
1783.000000	100.988005
1782.000000	100.991839
1781.000000	100.998074
1780.000000	101.004454
1779.000000	101.009018
1778.000000	101.012033
1777.000000	101.014197
1776.000000	101.014585
1775.000000	101.012513
1774.000000	101.010898
1773.000000	101.015190
1772.000000	101.025924
1771.000000	101.036940
1770.000000	101.043658
1769.000000	101.046269
1768.000000	101.046953
1767.000000	101.047962
1766.000000	101.050798
1765.000000	101.056072
1764.000000	101.063972
1763.000000	101.074730
1762.000000	101.087813
1761.000000	101.100363
1760.000000	101.108573
1759.000000	101.110429
1758.000000	101.106131
1757.000000	101.098089
1756.000000	101.089808
1755.000000	101.084115
1754.000000	101.081930
1753.000000	101.082394
1752.000000	101.083271
1751.000000	101.082426
1750.000000	101.079868
1749.000000	101.077110
1748.000000	101.074550
1747.000000	101.071085
1746.000000	101.066901
1745.000000	101.063699
1744.000000	101.062460
1743.000000	101.062282
1742.000000	101.061416
1741.000000	101.059324
1740.000000	101.057271
1739.000000	101.056402
1738.000000	101.056213
1737.000000	101.055373
1736.000000	101.053078
1735.000000	101.050366
1734.000000	101.048324
1733.000000	101.046777
1732.000000	101.045963
1731.000000	101.046008
1730.000000	101.046344
1729.000000	101.046241
1728.000000	101.044845
1727.000000	101.041959
1726.000000	101.038823
1725.000000	101.037026
1724.000000	101.036917
1723.000000	101.037211
1722.000000	101.035722
1721.000000	101.031619
1720.000000	101.026349
1719.000000	101.022863
1718.000000	101.022302
1717.000000	101.021959
1716.000000	101.019916
1715.000000	101.017503
1714.000000	101.015715
1713.000000	101.013831
1712.000000	101.011222
1711.000000	101.008357
1710.000000	101.005937
1709.000000	101.003875
1708.000000	101.001483
1707.000000	100.998601
1706.000000	100.995631
1705.000000	100.992328
1704.000000	100.988160
1703.000000	100.982840
1702.000000	100.976555
1701.000000	100.970486
1700.000000	100.965110
1699.000000	100.960366
1698.000000	100.957003
1697.000000	100.955326
1696.000000	100.954857
1695.000000	100.954028
1694.000000	100.951871
1693.000000	100.949356
1692.000000	100.947614
1691.000000	100.946801
1690.000000	100.945664
1689.000000	100.942713
1688.000000	100.937726
1687.000000	100.931824
1686.000000	100.926782
1685.000000	100.923902
1684.000000	100.921113
1683.000000	100.915415
1682.000000	100.908244
1681.000000	100.902323
1680.000000	100.898888
1679.000000	100.897685
1678.000000	100.897090
1677.000000	100.895652
1676.000000	100.892868
1675.000000	100.888887
1674.000000	100.884726
1673.000000	100.881917
1672.000000	100.881071
1671.000000	100.881748
1670.000000	100.882177
1669.000000	100.880804
1668.000000	100.878262
1667.000000	100.875684
1666.000000	100.872896
1665.000000	100.869403
1664.000000	100.865803
1663.000000	100.862839
1662.000000	100.860016
1661.000000	100.857250
1660.000000	100.855623
1659.000000	100.856268
1658.000000	100.858818
1657.000000	100.861525
1656.000000	100.862417
1655.000000	100.861035
1654.000000	100.858396
1653.000000	100.852223
1652.000000	100.843047
1651.000000	100.837448
1650.000000	100.836374
1649.000000	100.836668
1648.000000	100.836080
1647.000000	100.833641
1646.000000	100.831708
1645.000000	100.832840
1644.000000	100.836790
1643.000000	100.841544
1642.000000	100.845789
1641.000000	100.849263
1640.000000	100.851697
1639.000000	100.852996
1638.000000	100.853729
1637.000000	100.855664
1636.000000	100.859948
1635.000000	100.864829
1634.000000	100.868415
1633.000000	100.870478
1632.000000	100.871660
1631.000000	100.873034
1630.000000	100.875817
1629.000000	100.880214
1628.000000	100.884779
1627.000000	100.887472
1626.000000	100.887836
1625.000000	100.887280
1624.000000	100.887843
1623.000000	100.890665
1622.000000	100.895166
1621.000000	100.899872
1620.000000	100.903077
1619.000000	100.903800
1618.000000	100.903162
1617.000000	100.904410
1616.000000	100.909365
1615.000000	100.916332
1614.000000	100.923016
1613.000000	100.928704
1612.000000	100.933620
1611.000000	100.937760
1610.000000	100.941271
1609.000000	100.945170
1608.000000	100.950039
1607.000000	100.954469
1606.000000	100.956666
1605.000000	100.957241
1604.000000	100.958814
1603.000000	100.963516
1602.000000	100.971246
1601.000000	100.980064
1600.000000	100.987897
1599.000000	100.993732
1598.000000	100.997834
1597.000000	101.001302
1596.000000	101.005181
1595.000000	101.009752
1594.000000	101.014595
1593.000000	101.019237
1592.000000	101.023477
1591.000000	101.027326
1590.000000	101.031150
1589.000000	101.035626
1588.000000	101.040891
1587.000000	101.045931
1586.000000	101.049410
1585.000000	101.051468
1584.000000	101.053368
1583.000000	101.055547
1582.000000	101.057714
1581.000000	101.060095
1580.000000	101.063068
1579.000000	101.065781
1578.000000	101.066838
1577.000000	101.066656
1576.000000	101.068227
1575.000000	101.072890
1574.000000	101.077895
1573.000000	101.079880
1572.000000	101.078267
1571.000000	101.076323
1570.000000	101.078236
1569.000000	101.083997
1568.000000	101.089670
1567.000000	101.092940
1566.000000	101.094932
1565.000000	101.097671
1564.000000	101.101015
1563.000000	101.102314
1562.000000	101.099914
1561.000000	101.094414
1560.000000	101.090001
1559.000000	101.086314
1558.000000	101.079638
1557.000000	101.074726
1556.000000	101.074837
1555.000000	101.078263
1554.000000	101.082702
1553.000000	101.085458
1552.000000	101.085580
1551.000000	101.084568
1550.000000	101.084614
1549.000000	101.086243
1548.000000	101.088383
1547.000000	101.089615
1546.000000	101.089119
1545.000000	101.086668
1544.000000	101.083089
1543.000000	101.080707
1542.000000	101.081874
1541.000000	101.086150
1540.000000	101.088469
1539.000000	101.084903
1538.000000	101.077960
1537.000000	101.069999
1536.000000	101.060665
1535.000000	101.049991
1534.000000	101.039206
1533.000000	101.028980
1532.000000	101.019459
1531.000000	101.011981
1530.000000	101.007676
1529.000000	101.006089
1528.000000	101.005237
1527.000000	101.003166
1526.000000	100.999770
1525.000000	100.995969
1524.000000	100.991840
1523.000000	100.987291
1522.000000	100.982553
1521.000000	100.977278
1520.000000	100.971738
1519.000000	100.967473
1518.000000	100.965579
1517.000000	100.964895
1516.000000	100.962560
1515.000000	100.957973
1514.000000	100.953837
1513.000000	100.952537
1512.000000	100.954023
1511.000000	100.956572
1510.000000	100.958926
1509.000000	100.960857
1508.000000	100.962480
1507.000000	100.962761
1506.000000	100.960165
1505.000000	100.956496
1504.000000	100.953921
1503.000000	100.952478
1502.000000	100.951460
1501.000000	100.950119
1500.000000	100.947604
1499.000000	100.944167
1498.000000	100.941700
1497.000000	100.941411
1496.000000	100.941661
1495.000000	100.940111
1494.000000	100.936686
1493.000000	100.932966
1492.000000	100.930290
1491.000000	100.928832
1490.000000	100.927391
1489.000000	100.925102
1488.000000	100.922869
1487.000000	100.921777
1486.000000	100.920856
1485.000000	100.918517
1484.000000	100.914966
1483.000000	100.912283
1482.000000	100.912400
1481.000000	100.914671
1480.000000	100.916531
1479.000000	100.916479
1478.000000	100.915208
1477.000000	100.913781
1476.000000	100.912417
1475.000000	100.910928
1474.000000	100.909886
1473.000000	100.910143
1472.000000	100.910895
1471.000000	100.910840
1470.000000	100.909954
1469.000000	100.908617
1468.000000	100.906894
1467.000000	100.905068
1466.000000	100.903960
1465.000000	100.903984
1464.000000	100.903764
1463.000000	100.902151
1462.000000	100.899916
1461.000000	100.898247
1460.000000	100.897494
1459.000000	100.897365
1458.000000	100.897641
1457.000000	100.896521
1456.000000	100.891244
1455.000000	100.882337
1454.000000	100.873342
1453.000000	100.867144
1452.000000	100.863743
1451.000000	100.860773
1450.000000	100.856904
1449.000000	100.853956
1448.000000	100.854293
1447.000000	100.856835
1446.000000	100.858247
1445.000000	100.857119
1444.000000	100.854004
1443.000000	100.850415
1442.000000	100.847832
1441.000000	100.846569
1440.000000	100.845167
1439.000000	100.842114
1438.000000	100.838144
1437.000000	100.835993
1436.000000	100.836587
1435.000000	100.837316
1434.000000	100.836374
1433.000000	100.834563
1432.000000	100.833224
1431.000000	100.832781
1430.000000	100.833318
1429.000000	100.835087
1428.000000	100.837440
1427.000000	100.838040
1426.000000	100.835475
1425.000000	100.832077
1424.000000	100.831558
1423.000000	100.834482
1422.000000	100.837860
1421.000000	100.839509
1420.000000	100.840337
1419.000000	100.842421
1418.000000	100.846281
1417.000000	100.850731
1416.000000	100.854637
1415.000000	100.857728
1414.000000	100.860646
1413.000000	100.864495
1412.000000	100.869657
1411.000000	100.875053
1410.000000	100.879179
1409.000000	100.882028
1408.000000	100.885589
1407.000000	100.891707
1406.000000	100.899971
1405.000000	100.908082
1404.000000	100.913644
1403.000000	100.916361
1402.000000	100.918200
1401.000000	100.921528
1400.000000	100.926802
1399.000000	100.931771
1398.000000	100.934487
1397.000000	100.936574
1396.000000	100.941591
1395.000000	100.950376
1394.000000	100.959503
1393.000000	100.965739
1392.000000	100.969678
1391.000000	100.973511
1390.000000	100.977813
1389.000000	100.981487
1388.000000	100.984104
1387.000000	100.987097
1386.000000	100.991431
1385.000000	100.995783
1384.000000	100.998349
1383.000000	100.999408
1382.000000	101.000938
1381.000000	101.004083
1380.000000	101.007950
1379.000000	101.011027
1378.000000	101.013040
1377.000000	101.014978
1376.000000	101.018053
1375.000000	101.022926
1374.000000	101.029529
1373.000000	101.037323
1372.000000	101.046092
1371.000000	101.056257
1370.000000	101.067498
1369.000000	101.077404
1368.000000	101.083100
1367.000000	101.085027
1366.000000	101.087180
1365.000000	101.092403
1364.000000	101.098599
1363.000000	101.101200
1362.000000	101.099123
1361.000000	101.095756
1360.000000	101.093972
1359.000000	101.093827
1358.000000	101.094816
1357.000000	101.096823
1356.000000	101.098658
1355.000000	101.098222
1354.000000	101.095282
1353.000000	101.092189
1352.000000	101.090963
1351.000000	101.091160
1350.000000	101.091257
1349.000000	101.090867
1348.000000	101.090527
1347.000000	101.090523
1346.000000	101.090745
1345.000000	101.091010
1344.000000	101.090843
1343.000000	101.089612
1342.000000	101.087378
1341.000000	101.085103
1340.000000	101.083890
1339.000000	101.084505
1338.000000	101.087291
1337.000000	101.091399
1336.000000	101.094279
1335.000000	101.093582
1334.000000	101.090170
1333.000000	101.087902
1332.000000	101.089348
1331.000000	101.092819
1330.000000	101.094796
1329.000000	101.094392
1328.000000	101.093810
1327.000000	101.095016
1326.000000	101.097554
1325.000000	101.099679
1324.000000	101.100287
1323.000000	101.099407
1322.000000	101.097803
1321.000000	101.096490
1320.000000	101.096037
1319.000000	101.096214
1318.000000	101.096532
1317.000000	101.096802
1316.000000	101.096680
1315.000000	101.095282
1314.000000	101.092377
1313.000000	101.089750
1312.000000	101.090060
1311.000000	101.093849
1310.000000	101.098517
1309.000000	101.100704
1308.000000	101.099304
1307.000000	101.096201
1306.000000	101.094479
1305.000000	101.095712
1304.000000	101.098618
1303.000000	101.100300
1302.000000	101.099094
1301.000000	101.096100
1300.000000	101.093761
1299.000000	101.093317
1298.000000	101.094213
1297.000000	101.095566
1296.000000	101.097145
1295.000000	101.098851
1294.000000	101.100198
1293.000000	101.100663
1292.000000	101.100013
1291.000000	101.098201
1290.000000	101.095571
1289.000000	101.093190
1288.000000	101.091973
1287.000000	101.091195
1286.000000	101.088936
1285.000000	101.084569
1284.000000	101.079856
1283.000000	101.076821
1282.000000	101.075328
1281.000000	101.073803
1280.000000	101.071735
1279.000000	101.070045
1278.000000	101.069136
1277.000000	101.068068
1276.000000	101.066249
1275.000000	101.064972
1274.000000	101.066380
1273.000000	101.071180
1272.000000	101.077778
1271.000000	101.083437
1270.000000	101.086071
1269.000000	101.085243
1268.000000	101.082032
1267.000000	101.078269
1266.000000	101.075829
1265.000000	101.076199
1264.000000	101.080089
1263.000000	101.086875
1262.000000	101.094470
1261.000000	101.100342
1260.000000	101.103094
1259.000000	101.103164
1258.000000	101.101938
1257.000000	101.100123
1256.000000	101.096985
1255.000000	101.091316
1254.000000	101.083241
1253.000000	101.074765
1252.000000	101.068024
1251.000000	101.063067
1250.000000	101.057925
1249.000000	101.050991
1248.000000	101.042609
1247.000000	101.034042
1246.000000	101.025870
1245.000000	101.018366
1244.000000	101.012748
1243.000000	101.010474
1242.000000	101.010947
1241.000000	101.010895
1240.000000	101.006679
1239.000000	100.997069
1238.000000	100.983914
1237.000000	100.970500
1236.000000	100.959082
1235.000000	100.949350
1234.000000	100.939100
1233.000000	100.926692
1232.000000	100.912734
1231.000000	100.898938
1230.000000	100.885621
1229.000000	100.871015
1228.000000	100.852965
1227.000000	100.830762
1226.000000	100.805529
1225.000000	100.779353
1224.000000	100.753575
1223.000000	100.727035
1222.000000	100.696515
1221.000000	100.660087
1220.000000	100.619615
1219.000000	100.578474
1218.000000	100.537007
1217.000000	100.492355
1216.000000	100.443136
1215.000000	100.391902
1214.000000	100.341719
1213.000000	100.291969
1212.000000	100.239083
1211.000000	100.180250
1210.000000	100.115311
1209.000000	100.046371
1208.000000	99.976898
1207.000000	99.910182
1206.000000	99.847431
1205.000000	99.787981
1204.000000	99.731464
1203.000000	99.678003
1202.000000	99.625866
1201.000000	99.571223
1200.000000	99.511716
1199.000000	99.449015
1198.000000	99.386890
1197.000000	99.328031
1196.000000	99.273084
1195.000000	99.220544
1194.000000	99.166385
1193.000000	99.105812
1192.000000	99.037080
1191.000000	98.962828
1190.000000	98.887094
1189.000000	98.812061
1188.000000	98.737868
1187.000000	98.663576
1186.000000	98.587509
1185.000000	98.508430
1184.000000	98.427287
1183.000000	98.346436
1182.000000	98.266888
1181.000000	98.187939
1180.000000	98.109354
1179.000000	98.031404
1178.000000	97.952585
1177.000000	97.870113
1176.000000	97.783411
1175.000000	97.694692
1174.000000	97.605546
1173.000000	97.515359
1172.000000	97.423632
1171.000000	97.331376
1170.000000	97.239759
1169.000000	97.149724
1168.000000	97.063141
1167.000000	96.982266
1166.000000	96.909194
1165.000000	96.849210
1164.000000	96.813002
1163.000000	96.810162
1162.000000	96.839435
1161.000000	96.888223
1160.000000	96.940760
1159.000000	96.983388
1158.000000	97.004851
1157.000000	96.998825
1156.000000	96.967237
1155.000000	96.916856
1154.000000	96.852400
1153.000000	96.776634
1152.000000	96.695795
1151.000000	96.618130
1150.000000	96.545588
1149.000000	96.472569
1148.000000	96.394667
1147.000000	96.313983
1146.000000	96.234791
1145.000000	96.158948
1144.000000	96.086896
1143.000000	96.018199
1142.000000	95.949475
1141.000000	95.876130
1140.000000	95.797298
1139.000000	95.715375
1138.000000	95.631048
1137.000000	95.543589
1136.000000	95.455411
1135.000000	95.370429
1134.000000	95.287731
1133.000000	95.202462
1132.000000	95.112630
1131.000000	95.019427
1130.000000	94.922400
1129.000000	94.821497
1128.000000	94.722414
1127.000000	94.631167
1126.000000	94.543728
1125.000000	94.450311
1124.000000	94.350162
1123.000000	94.252404
1122.000000	94.161421
1121.000000	94.071786
1120.000000	93.979611
1119.000000	93.888161
1118.000000	93.799149
1117.000000	93.708989
1116.000000	93.617427
1115.000000	93.530027
1114.000000	93.448068
1113.000000	93.365454
1112.000000	93.279448
1111.000000	93.194887
1110.000000	93.114431
1109.000000	93.034421
1108.000000	92.953339
1107.000000	92.874128
1106.000000	92.795137
1105.000000	92.709544
1104.000000	92.617276
1103.000000	92.526782
1102.000000	92.441428
1101.000000	92.355059
1100.000000	92.264235
1099.000000	92.173191
1098.000000	92.083284
1097.000000	91.989902
1096.000000	91.894586
1095.000000	91.807355
1094.000000	91.731071
1093.000000	91.655673
1092.000000	91.574382
1091.000000	91.494051
1090.000000	91.422747
1089.000000	91.358351
1088.000000	91.296551
1087.000000	91.239540
1086.000000	91.189422
1085.000000	91.142130
1084.000000	91.094320
1083.000000	91.047943
1082.000000	91.003108
1081.000000	90.955310
1080.000000	90.903996
1079.000000	90.854595
1078.000000	90.808158
1077.000000	90.758629
1076.000000	90.704000
1075.000000	90.649402
1074.000000	90.594908
1073.000000	90.530810
1072.000000	90.449213
1071.000000	90.350145
1070.000000	90.233111
1069.000000	90.093637
1068.000000	89.932579
1067.000000	89.758629
1066.000000	89.577493
1065.000000	89.388739
1064.000000	89.196355
1063.000000	89.009797
1062.000000	88.829823
1061.000000	88.646099
1060.000000	88.454131
1059.000000	88.262111
1058.000000	88.076155
1057.000000	87.892168
1056.000000	87.708302
1055.000000	87.531665
1054.000000	87.364965
1053.000000	87.198697
1052.000000	87.024809
1051.000000	86.847073
1050.000000	86.670668
1049.000000	86.493862
1048.000000	86.316747
1047.000000	86.144139
1046.000000	85.973519
1045.000000	85.793348
1044.000000	85.597833
1043.000000	85.391663
1042.000000	85.178634
1041.000000	84.959543
1040.000000	84.743220
1039.000000	84.543377
1038.000000	84.360141
1037.000000	84.180257
1036.000000	83.999709
1035.000000	83.829772
1034.000000	83.676618
1033.000000	83.533455
1032.000000	83.398665
1031.000000	83.283053
1030.000000	83.190796
1029.000000	83.110111
1028.000000	83.031439
1027.000000	82.959759
1026.000000	82.900457
1025.000000	82.847597
1024.000000	82.794196
1023.000000	82.740956
1022.000000	82.688200
1021.000000	82.632237
1020.000000	82.575215
1019.000000	82.524969
1018.000000	82.479969
1017.000000	82.427957
1016.000000	82.364006
1015.000000	82.296248
1014.000000	82.230304
1013.000000	82.163008
1012.000000	82.094952
1011.000000	82.033341
1010.000000	81.978099
1009.000000	81.920920
1008.000000	81.862591
1007.000000	81.815424
1006.000000	81.783891
1005.000000	81.758812
1004.000000	81.735317
1003.000000	81.720045
1002.000000	81.715039
1001.000000	81.711312
1000.000000	81.705339
999.000000	81.706543
998.000000	81.721213
997.000000	81.743201
996.000000	81.766777
995.000000	81.794601
994.000000	81.826671
993.000000	81.855306
992.000000	81.878094
991.000000	81.903563
990.000000	81.938118
989.000000	81.979231
988.000000	82.026006
987.000000	82.083736
986.000000	82.152920
985.000000	82.226088
984.000000	82.300822
983.000000	82.385008
982.000000	82.484991
981.000000	82.599143
980.000000	82.725844
979.000000	82.866888
978.000000	83.020936
977.000000	83.184617
976.000000	83.361039
975.000000	83.555371
974.000000	83.761669
973.000000	83.967034
972.000000	84.169628
971.000000	84.379267
970.000000	84.599282
969.000000	84.821623
968.000000	85.041555
967.000000	85.263647
966.000000	85.490813
965.000000	85.719837
964.000000	85.949630
963.000000	86.181678
962.000000	86.410786
961.000000	86.627848
960.000000	86.833647
959.000000	87.037955
958.000000	87.243239
957.000000	87.441167
956.000000	87.627039
955.000000	87.805469
954.000000	87.979415
953.000000	88.145180
952.000000	88.300892
951.000000	88.448468
950.000000	88.584534
949.000000	88.701204
948.000000	88.799899
947.000000	88.894159
946.000000	88.994330
945.000000	89.097802
944.000000	89.197262
943.000000	89.289235
942.000000	89.371771
941.000000	89.443334
940.000000	89.507502
939.000000	89.570631
938.000000	89.632493
937.000000	89.687800
936.000000	89.738764
935.000000	89.796326
934.000000	89.865862
933.000000	89.940835
932.000000	90.013659
931.000000	90.083864
930.000000	90.152633
929.000000	90.218442
928.000000	90.281960
927.000000	90.347495
926.000000	90.415968
925.000000	90.482845
924.000000	90.544957
923.000000	90.602650
922.000000	90.654233
921.000000	90.695847
920.000000	90.728117
919.000000	90.755979
918.000000	90.781682
917.000000	90.805506
916.000000	90.832844
915.000000	90.871293
914.000000	90.920382
913.000000	90.973680
912.000000	91.031697
911.000000	91.103029
910.000000	91.192309
909.000000	91.297605
908.000000	91.420403
907.000000	91.566520
906.000000	91.734743
905.000000	91.915207
904.000000	92.101954
903.000000	92.297591
902.000000	92.503253
901.000000	92.713456
900.000000	92.923212
899.000000	93.131780
898.000000	93.337369
897.000000	93.535999
896.000000	93.727154
895.000000	93.913473
894.000000	94.094175
893.000000	94.265591
892.000000	94.427696
891.000000	94.582525
890.000000	94.727033
889.000000	94.856398
888.000000	94.974537
887.000000	95.092391
886.000000	95.214645
885.000000	95.336408
884.000000	95.453838
883.000000	95.568863
882.000000	95.682142
881.000000	95.791428
880.000000	95.900050
879.000000	96.017713
878.000000	96.148601
877.000000	96.286458
876.000000	96.424886
875.000000	96.564480
874.000000	96.706178
873.000000	96.845669
872.000000	96.979695
871.000000	97.112533
870.000000	97.251663
869.000000	97.400005
868.000000	97.554396
867.000000	97.708447
866.000000	97.856000
865.000000	97.994978
864.000000	98.128231
863.000000	98.258150
862.000000	98.381706
861.000000	98.494264
860.000000	98.596624
859.000000	98.693992
858.000000	98.789158
857.000000	98.880911
856.000000	98.968135
855.000000	99.051362
854.000000	99.131167
853.000000	99.208314
852.000000	99.283541
851.000000	99.354066
850.000000	99.414286
849.000000	99.464847
848.000000	99.516422
847.000000	99.576746
846.000000	99.636777
845.000000	99.678547
844.000000	99.695130
843.000000	99.694253
842.000000	99.683192
841.000000	99.660055
840.000000	99.621945
839.000000	99.572359
838.000000	99.516397
837.000000	99.455548
836.000000	99.391323
835.000000	99.328447
834.000000	99.270855
833.000000	99.219482
832.000000	99.176583
831.000000	99.146276
830.000000	99.127581
829.000000	99.113446
828.000000	99.101420
827.000000	99.099561
826.000000	99.116135
825.000000	99.148089
824.000000	99.185536
823.000000	99.223661
822.000000	99.264075
821.000000	99.306130
820.000000	99.341233
819.000000	99.356216
818.000000	99.342887
817.000000	99.305812
816.000000	99.258139
815.000000	99.205522
814.000000	99.135862
813.000000	99.029860
812.000000	98.879049
811.000000	98.686198
810.000000	98.449742
809.000000	98.158466
808.000000	97.805104
807.000000	97.396831
806.000000	96.947902
805.000000	96.470279
804.000000	95.978866
803.000000	95.499328
802.000000	95.061799
801.000000	94.689683
800.000000	94.398175
799.000000	94.195539
798.000000	94.079053
797.000000	94.035786
796.000000	94.052400
795.000000	94.119288
794.000000	94.224028
793.000000	94.348854
792.000000	94.477138
791.000000	94.596319
790.000000	94.694348
789.000000	94.760479
788.000000	94.789826
787.000000	94.780490
786.000000	94.726932
785.000000	94.624268
784.000000	94.479896
783.000000	94.313375
782.000000	94.144022
781.000000	93.986042
780.000000	93.855356
779.000000	93.770164
778.000000	93.740891
777.000000	93.766796
776.000000	93.843111
775.000000	93.962773
774.000000	94.111321
773.000000	94.270705
772.000000	94.430122
771.000000	94.585726
770.000000	94.731392
769.000000	94.859866
768.000000	94.972500
767.000000	95.077296
766.000000	95.176175
765.000000	95.262920
764.000000	95.333480
763.000000	95.389029
762.000000	95.429961
761.000000	95.458275
760.000000	95.486283
759.000000	95.530365
758.000000	95.592639
757.000000	95.659314
756.000000	95.720156
755.000000	95.779231
754.000000	95.843519
753.000000	95.912014
752.000000	95.981151
751.000000	96.052383
750.000000	96.129539
749.000000	96.214871
748.000000	96.310066
747.000000	96.414433
746.000000	96.520830
745.000000	96.621561
744.000000	96.720006
743.000000	96.827936
742.000000	96.949452
741.000000	97.075996
740.000000	97.198769
739.000000	97.317525
738.000000	97.435636
737.000000	97.554714
736.000000	97.675807
735.000000	97.798091
734.000000	97.914974
733.000000	98.018329
732.000000	98.106428
731.000000	98.180860
730.000000	98.238269
729.000000	98.275477
728.000000	98.300968
727.000000	98.329655
726.000000	98.365955
725.000000	98.403123
724.000000	98.440422
723.000000	98.488239
722.000000	98.552578
721.000000	98.625902
720.000000	98.698272
719.000000	98.767470
718.000000	98.832796
717.000000	98.888979
716.000000	98.933368
715.000000	98.971651
714.000000	99.010337
713.000000	99.049220
712.000000	99.084545
711.000000	99.112925
710.000000	99.129745
709.000000	99.132331
708.000000	99.128293
707.000000	99.130837
706.000000	99.141048
705.000000	99.142600
704.000000	99.117793
703.000000	99.059355
702.000000	98.960516
701.000000	98.805436
700.000000	98.581370
699.000000	98.296045
698.000000	97.979276
697.000000	97.674008
696.000000	97.428668
695.000000	97.284933
694.000000	97.257679
693.000000	97.327914
692.000000	97.459276
691.000000	97.618789
690.000000	97.784069
689.000000	97.941075
688.000000	98.084352
687.000000	98.216249
686.000000	98.338498
685.000000	98.448797
684.000000	98.547604
683.000000	98.638137
682.000000	98.716634
681.000000	98.773922
680.000000	98.813058
679.000000	98.853469
678.000000	98.908758
677.000000	98.972694
676.000000	99.033526
675.000000	99.090070
674.000000	99.145856
673.000000	99.193990
672.000000	99.219834
671.000000	99.220810
670.000000	99.216416
669.000000	99.246965
668.000000	99.345610
667.000000	99.473195
666.000000	99.566995
665.000000	99.631984
664.000000	99.691934
663.000000	99.752926
662.000000	99.804053
661.000000	99.835454
660.000000	99.850141
659.000000	99.857007
658.000000	99.862335
657.000000	99.872792
656.000000	99.896300
655.000000	99.930982
654.000000	99.960280
653.000000	99.965253
652.000000	99.941388
651.000000	99.904695
650.000000	99.881440
649.000000	99.888482
648.000000	99.920579
647.000000	99.955293
646.000000	99.973223
645.000000	99.977447
644.000000	99.991869
643.000000	100.037795
642.000000	100.111861
641.000000	100.191276
640.000000	100.257930
639.000000	100.309636
638.000000	100.352506
637.000000	100.391928
636.000000	100.429982
635.000000	100.463697
634.000000	100.484612
633.000000	100.487810
632.000000	100.481672
631.000000	100.482538
630.000000	100.501510
629.000000	100.542628
628.000000	100.610300
627.000000	100.704921
626.000000	100.808912
625.000000	100.892700
624.000000	100.942744
623.000000	100.973056
622.000000	101.006849
621.000000	101.051015
620.000000	101.090698
619.000000	101.106798
618.000000	101.101530
617.000000	101.106996
616.000000	101.153647
615.000000	101.225046
614.000000	101.263575
613.000000	101.232560
612.000000	101.150688
611.000000	101.057694
610.000000	100.969478
609.000000	100.889198
608.000000	100.841100
607.000000	100.848676
606.000000	100.885788
605.000000	100.900322
604.000000	100.888128
603.000000	100.890505
602.000000	100.915842
601.000000	100.920948
600.000000	100.885242
599.000000	100.850468
598.000000	100.855935
597.000000	100.877224
596.000000	100.868192
595.000000	100.826302
594.000000	100.780155
593.000000	100.742532
592.000000	100.719383
591.000000	100.739256
590.000000	100.819986
589.000000	100.921967
588.000000	100.980764
587.000000	100.974753
586.000000	100.934581
585.000000	100.899287
584.000000	100.892123
583.000000	100.924554
582.000000	100.981397
581.000000	101.015414
580.000000	100.998639
579.000000	100.969869
578.000000	100.994491
577.000000	101.084908
576.000000	101.196327
575.000000	101.278172
574.000000	101.297364
573.000000	101.232478
572.000000	101.084100
571.000000	100.892121
570.000000	100.710137
569.000000	100.559901
568.000000	100.442608
567.000000	100.366848
566.000000	100.316256
565.000000	100.227540
564.000000	100.058211
563.000000	99.854671
562.000000	99.707000
561.000000	99.638565
560.000000	99.586267
559.000000	99.472606
558.000000	99.269501
557.000000	99.014757
556.000000	98.791469
555.000000	98.668664
554.000000	98.628417
553.000000	98.582798
552.000000	98.489771
551.000000	98.401239
550.000000	98.367050
