PE IR       SUBTECH     SPECTRUM    ASCII       PEDS        4.00        
   -1
BH-2(1)10-11_1.asc
24/05/14
11:33:07.00
24/05/14
11:33:34.00
Administrator
?品 013 用? Administrator 日期 Tuesday, May 14 2024
550.000000
#HDR
-1
-1
#GR
cm-1
%T
1.0
0.0
4000.000000
-1.000000
3451
8
100.604499
87.774572
#DATA
4000.000000	100.493087
3999.000000	100.492607
3998.000000	100.492605
3997.000000	100.492947
3996.000000	100.493452
3995.000000	100.493869
3994.000000	100.493813
3993.000000	100.492934
3992.000000	100.491284
3991.000000	100.489545
3990.000000	100.488647
3989.000000	100.489122
3988.000000	100.490847
3987.000000	100.493110
3986.000000	100.495031
3985.000000	100.496075
3984.000000	100.496230
3983.000000	100.495840
3982.000000	100.495229
3981.000000	100.494424
3980.000000	100.493259
3979.000000	100.491650
3978.000000	100.489738
3977.000000	100.487855
3976.000000	100.486391
3975.000000	100.485586
3974.000000	100.485335
3973.000000	100.485191
3972.000000	100.484647
3971.000000	100.483472
3970.000000	100.481842
3969.000000	100.480274
3968.000000	100.479382
3967.000000	100.479532
3966.000000	100.480560
3965.000000	100.481702
3964.000000	100.482033
3963.000000	100.481111
3962.000000	100.479171
3961.000000	100.476865
3960.000000	100.474808
3959.000000	100.473309
3958.000000	100.472393
3957.000000	100.471871
3956.000000	100.471394
3955.000000	100.470600
3954.000000	100.469304
3953.000000	100.467624
3952.000000	100.465960
3951.000000	100.464821
3950.000000	100.464527
3949.000000	100.464944
3948.000000	100.465481
3947.000000	100.465471
3946.000000	100.464680
3945.000000	100.463414
3944.000000	100.462196
3943.000000	100.461262
3942.000000	100.460378
3941.000000	100.459199
3940.000000	100.457676
3939.000000	100.456069
3938.000000	100.454634
3937.000000	100.453420
3936.000000	100.452351
3935.000000	100.451397
3934.000000	100.450577
3933.000000	100.449823
3932.000000	100.448928
3931.000000	100.447709
3930.000000	100.446170
3929.000000	100.444459
3928.000000	100.442780
3927.000000	100.441321
3926.000000	100.440178
3925.000000	100.439273
3924.000000	100.438370
3923.000000	100.437261
3922.000000	100.435958
3921.000000	100.434637
3920.000000	100.433442
3919.000000	100.432358
3918.000000	100.431288
3917.000000	100.430205
3916.000000	100.429193
3915.000000	100.428326
3914.000000	100.427581
3913.000000	100.426843
3912.000000	100.425970
3911.000000	100.424885
3910.000000	100.423611
3909.000000	100.422243
3908.000000	100.420904
3907.000000	100.419703
3906.000000	100.418702
3905.000000	100.417895
3904.000000	100.417213
3903.000000	100.416527
3902.000000	100.415701
3901.000000	100.414659
3900.000000	100.413418
3899.000000	100.412103
3898.000000	100.410868
3897.000000	100.409770
3896.000000	100.408766
3895.000000	100.407765
3894.000000	100.406737
3893.000000	100.405755
3892.000000	100.404917
3891.000000	100.404207
3890.000000	100.403484
3889.000000	100.402629
3888.000000	100.401651
3887.000000	100.400686
3886.000000	100.399845
3885.000000	100.399046
3884.000000	100.398086
3883.000000	100.396876
3882.000000	100.395552
3881.000000	100.394386
3880.000000	100.393548
3879.000000	100.392918
3878.000000	100.392121
3877.000000	100.390821
3876.000000	100.388997
3875.000000	100.387019
3874.000000	100.385407
3873.000000	100.384473
3872.000000	100.384198
3871.000000	100.384374
3870.000000	100.384748
3869.000000	100.385000
3868.000000	100.384809
3867.000000	100.383957
3866.000000	100.382340
3865.000000	100.379986
3864.000000	100.377185
3863.000000	100.374559
3862.000000	100.372584
3861.000000	100.371094
3860.000000	100.369663
3859.000000	100.368315
3858.000000	100.367507
3857.000000	100.367340
3856.000000	100.367342
3855.000000	100.367243
3854.000000	100.367054
3853.000000	100.366563
3852.000000	100.365866
3851.000000	100.365363
3850.000000	100.365189
3849.000000	100.365060
3848.000000	100.364661
3847.000000	100.364082
3846.000000	100.363792
3845.000000	100.364092
3844.000000	100.364711
3843.000000	100.365060
3842.000000	100.364829
3841.000000	100.364211
3840.000000	100.363648
3839.000000	100.363283
3838.000000	100.362811
3837.000000	100.361924
3836.000000	100.360743
3835.000000	100.359746
3834.000000	100.359329
3833.000000	100.359470
3832.000000	100.359783
3831.000000	100.359788
3830.000000	100.359215
3829.000000	100.358116
3828.000000	100.356759
3827.000000	100.355499
3826.000000	100.354640
3825.000000	100.354307
3824.000000	100.354427
3823.000000	100.354698
3822.000000	100.354566
3821.000000	100.353561
3820.000000	100.351962
3819.000000	100.350714
3818.000000	100.350505
3817.000000	100.351207
3816.000000	100.351844
3815.000000	100.351468
3814.000000	100.350152
3813.000000	100.348800
3812.000000	100.348139
3811.000000	100.348105
3810.000000	100.348058
3809.000000	100.347359
3808.000000	100.345873
3807.000000	100.344183
3806.000000	100.343237
3805.000000	100.343630
3804.000000	100.345039
3803.000000	100.346018
3802.000000	100.344833
3801.000000	100.341035
3800.000000	100.335840
3799.000000	100.330851
3798.000000	100.326854
3797.000000	100.323927
3796.000000	100.322035
3795.000000	100.321167
3794.000000	100.321030
3793.000000	100.320947
3792.000000	100.320168
3791.000000	100.318379
3790.000000	100.315971
3789.000000	100.313708
3788.000000	100.312084
3787.000000	100.311051
3786.000000	100.310275
3785.000000	100.309569
3784.000000	100.309053
3783.000000	100.308858
3782.000000	100.308820
3781.000000	100.308457
3780.000000	100.307269
3779.000000	100.305223
3778.000000	100.303012
3777.000000	100.301517
3776.000000	100.301026
3775.000000	100.300948
3774.000000	100.300236
3773.000000	100.298265
3772.000000	100.295462
3771.000000	100.293082
3770.000000	100.291982
3769.000000	100.291666
3768.000000	100.290922
3767.000000	100.289309
3766.000000	100.287592
3765.000000	100.286725
3764.000000	100.286598
3763.000000	100.286088
3762.000000	100.284297
3761.000000	100.281695
3760.000000	100.279982
3759.000000	100.280521
3758.000000	100.282954
3757.000000	100.285429
3756.000000	100.286369
3755.000000	100.285728
3754.000000	100.284688
3753.000000	100.284450
3752.000000	100.284895
3751.000000	100.284637
3750.000000	100.283000
3749.000000	100.280873
3748.000000	100.279480
3747.000000	100.279354
3746.000000	100.280263
3745.000000	100.281215
3744.000000	100.280250
3743.000000	100.276409
3742.000000	100.271329
3741.000000	100.267470
3740.000000	100.265637
3739.000000	100.264699
3738.000000	100.263374
3737.000000	100.261762
3736.000000	100.260736
3735.000000	100.260522
3734.000000	100.260521
3733.000000	100.260080
3732.000000	100.258651
3731.000000	100.255759
3730.000000	100.251522
3729.000000	100.246852
3728.000000	100.242852
3727.000000	100.239918
3726.000000	100.237291
3725.000000	100.233823
3724.000000	100.229183
3723.000000	100.224137
3722.000000	100.219682
3721.000000	100.216296
3720.000000	100.214009
3719.000000	100.212421
3718.000000	100.210810
3717.000000	100.208521
3716.000000	100.205639
3715.000000	100.203470
3714.000000	100.203826
3713.000000	100.207176
3712.000000	100.211052
3711.000000	100.211529
3710.000000	100.206951
3709.000000	100.198545
3708.000000	100.188276
3707.000000	100.177626
3706.000000	100.167712
3705.000000	100.159501
3704.000000	100.153281
3703.000000	100.148038
3702.000000	100.142064
3701.000000	100.134836
3700.000000	100.127836
3699.000000	100.122845
3698.000000	100.120114
3697.000000	100.118395
3696.000000	100.116284
3695.000000	100.113605
3694.000000	100.111419
3693.000000	100.110629
3692.000000	100.110794
3691.000000	100.110452
3690.000000	100.109040
3689.000000	100.107824
3688.000000	100.107798
3687.000000	100.107807
3686.000000	100.106093
3685.000000	100.102265
3684.000000	100.097160
3683.000000	100.091751
3682.000000	100.086454
3681.000000	100.081107
3680.000000	100.075474
3679.000000	100.069685
3678.000000	100.063636
3677.000000	100.056479
3676.000000	100.046888
3675.000000	100.035414
3674.000000	100.025693
3673.000000	100.020319
3672.000000	100.017846
3671.000000	100.013862
3670.000000	100.004739
3669.000000	99.991436
3668.000000	99.978344
3667.000000	99.968458
3666.000000	99.961393
3665.000000	99.955021
3664.000000	99.947559
3663.000000	99.938730
3662.000000	99.929892
3661.000000	99.922550
3660.000000	99.916344
3659.000000	99.909026
3658.000000	99.898760
3657.000000	99.886621
3656.000000	99.875595
3655.000000	99.866951
3654.000000	99.859333
3653.000000	99.851124
3652.000000	99.841920
3651.000000	99.831435
3650.000000	99.817847
3649.000000	99.800245
3648.000000	99.782594
3647.000000	99.770859
3646.000000	99.767059
3645.000000	99.768493
3644.000000	99.770648
3643.000000	99.770026
3642.000000	99.765566
3641.000000	99.758351
3640.000000	99.750217
3639.000000	99.742262
3638.000000	99.734328
3637.000000	99.725749
3636.000000	99.716511
3635.000000	99.707728
3634.000000	99.700729
3633.000000	99.695598
3632.000000	99.690602
3631.000000	99.683259
3630.000000	99.672478
3629.000000	99.659915
3628.000000	99.649384
3627.000000	99.642961
3626.000000	99.639203
3625.000000	99.635507
3624.000000	99.630565
3623.000000	99.625394
3622.000000	99.622857
3621.000000	99.625575
3620.000000	99.633038
3619.000000	99.640994
3618.000000	99.645751
3617.000000	99.648270
3616.000000	99.652486
3615.000000	99.660643
3614.000000	99.670609
3613.000000	99.677849
3612.000000	99.680496
3611.000000	99.681543
3610.000000	99.685700
3609.000000	99.694912
3608.000000	99.706792
3607.000000	99.717129
3606.000000	99.723437
3605.000000	99.726082
3604.000000	99.727394
3603.000000	99.730176
3602.000000	99.735894
3601.000000	99.743784
3600.000000	99.751729
3599.000000	99.757732
3598.000000	99.760625
3597.000000	99.760335
3596.000000	99.758147
3595.000000	99.756360
3594.000000	99.756290
3593.000000	99.756769
3592.000000	99.755547
3591.000000	99.751963
3590.000000	99.747985
3589.000000	99.746842
3588.000000	99.750301
3587.000000	99.757127
3586.000000	99.764194
3585.000000	99.768824
3584.000000	99.770368
3583.000000	99.770194
3582.000000	99.770223
3581.000000	99.771186
3580.000000	99.772180
3579.000000	99.772016
3578.000000	99.770622
3577.000000	99.769016
3576.000000	99.768300
3575.000000	99.768921
3574.000000	99.770697
3573.000000	99.773099
3572.000000	99.775423
3571.000000	99.776956
3570.000000	99.777259
3569.000000	99.776407
3568.000000	99.775000
3567.000000	99.773880
3566.000000	99.773637
3565.000000	99.774268
3564.000000	99.775282
3563.000000	99.776024
3562.000000	99.776043
3561.000000	99.775327
3560.000000	99.774261
3559.000000	99.773375
3558.000000	99.772995
3557.000000	99.773127
3556.000000	99.773599
3555.000000	99.774183
3554.000000	99.774631
3553.000000	99.774733
3552.000000	99.774405
3551.000000	99.773766
3550.000000	99.773069
3549.000000	99.772534
3548.000000	99.772229
3547.000000	99.772059
3546.000000	99.771835
3545.000000	99.771449
3544.000000	99.771019
3543.000000	99.770847
3542.000000	99.771159
3541.000000	99.771851
3540.000000	99.772496
3539.000000	99.772671
3538.000000	99.772262
3537.000000	99.771467
3536.000000	99.770526
3535.000000	99.769575
3534.000000	99.768813
3533.000000	99.768600
3532.000000	99.769125
3531.000000	99.770009
3530.000000	99.770534
3529.000000	99.770440
3528.000000	99.770306
3527.000000	99.770942
3526.000000	99.772477
3525.000000	99.774210
3524.000000	99.775333
3523.000000	99.775631
3522.000000	99.775448
3521.000000	99.775172
3520.000000	99.775013
3519.000000	99.775221
3518.000000	99.776136
3517.000000	99.777789
3516.000000	99.779534
3515.000000	99.780320
3514.000000	99.779510
3513.000000	99.777443
3512.000000	99.775227
3511.000000	99.774014
3510.000000	99.774271
3509.000000	99.775563
3508.000000	99.776903
3507.000000	99.777330
3506.000000	99.776347
3505.000000	99.774099
3504.000000	99.771314
3503.000000	99.768943
3502.000000	99.767558
3501.000000	99.767012
3500.000000	99.766691
3499.000000	99.766111
3498.000000	99.765254
3497.000000	99.764404
3496.000000	99.763783
3495.000000	99.763390
3494.000000	99.763132
3493.000000	99.763027
3492.000000	99.763181
3491.000000	99.763524
3490.000000	99.763612
3489.000000	99.762916
3488.000000	99.761526
3487.000000	99.760481
3486.000000	99.761038
3485.000000	99.763476
3484.000000	99.766580
3483.000000	99.768402
3482.000000	99.767844
3481.000000	99.765331
3480.000000	99.762296
3479.000000	99.759957
3478.000000	99.758535
3477.000000	99.757572
3476.000000	99.756616
3475.000000	99.755579
3474.000000	99.754650
3473.000000	99.754012
3472.000000	99.753649
3471.000000	99.753317
3470.000000	99.752738
3469.000000	99.751869
3468.000000	99.750958
3467.000000	99.750200
3466.000000	99.749326
3465.000000	99.747780
3464.000000	99.745394
3463.000000	99.742636
3462.000000	99.740040
3461.000000	99.737663
3460.000000	99.735357
3459.000000	99.733339
3458.000000	99.732072
3457.000000	99.731586
3456.000000	99.731264
3455.000000	99.730405
3454.000000	99.728918
3453.000000	99.727272
3452.000000	99.725891
3451.000000	99.724711
3450.000000	99.723335
3449.000000	99.721454
3448.000000	99.719100
3447.000000	99.716608
3446.000000	99.714379
3445.000000	99.712561
3444.000000	99.710992
3443.000000	99.709431
3442.000000	99.707835
3441.000000	99.706350
3440.000000	99.705025
3439.000000	99.703662
3438.000000	99.702008
3437.000000	99.700002
3436.000000	99.697854
3435.000000	99.695882
3434.000000	99.694273
3433.000000	99.693009
3432.000000	99.691944
3431.000000	99.690885
3430.000000	99.689647
3429.000000	99.688115
3428.000000	99.686303
3427.000000	99.684402
3426.000000	99.682701
3425.000000	99.681366
3424.000000	99.680329
3423.000000	99.679339
3422.000000	99.678173
3421.000000	99.676769
3420.000000	99.675159
3419.000000	99.673368
3418.000000	99.671453
3417.000000	99.669617
3416.000000	99.668124
3415.000000	99.667058
3414.000000	99.666243
3413.000000	99.665460
3412.000000	99.664677
3411.000000	99.663965
3410.000000	99.663293
3409.000000	99.662498
3408.000000	99.661437
3407.000000	99.660109
3406.000000	99.658623
3405.000000	99.657122
3404.000000	99.655717
3403.000000	99.654478
3402.000000	99.653440
3401.000000	99.652596
3400.000000	99.651886
3399.000000	99.651157
3398.000000	99.650209
3397.000000	99.648943
3396.000000	99.647451
3395.000000	99.645981
3394.000000	99.644705
3393.000000	99.643585
3392.000000	99.642452
3391.000000	99.641210
3390.000000	99.639947
3389.000000	99.638843
3388.000000	99.637979
3387.000000	99.637255
3386.000000	99.636449
3385.000000	99.635393
3384.000000	99.634079
3383.000000	99.632648
3382.000000	99.631308
3381.000000	99.630178
3380.000000	99.629249
3379.000000	99.628440
3378.000000	99.627657
3377.000000	99.626830
3376.000000	99.625917
3375.000000	99.624911
3374.000000	99.623848
3373.000000	99.622754
3372.000000	99.621608
3371.000000	99.620360
3370.000000	99.618996
3369.000000	99.617594
3368.000000	99.616290
3367.000000	99.615170
3366.000000	99.614174
3365.000000	99.613115
3364.000000	99.611807
3363.000000	99.610195
3362.000000	99.608436
3361.000000	99.606862
3360.000000	99.605791
3359.000000	99.605300
3358.000000	99.605123
3357.000000	99.604808
3356.000000	99.604107
3355.000000	99.603164
3354.000000	99.602332
3353.000000	99.601758
3352.000000	99.601189
3351.000000	99.600233
3350.000000	99.598765
3349.000000	99.597008
3348.000000	99.595339
3347.000000	99.594062
3346.000000	99.593313
3345.000000	99.592996
3344.000000	99.592733
3343.000000	99.592029
3342.000000	99.590618
3341.000000	99.588644
3340.000000	99.586477
3339.000000	99.584404
3338.000000	99.582595
3337.000000	99.581251
3336.000000	99.580566
3335.000000	99.580470
3334.000000	99.580494
3333.000000	99.580059
3332.000000	99.578923
3331.000000	99.577250
3330.000000	99.575374
3329.000000	99.573570
3328.000000	99.572034
3327.000000	99.570887
3326.000000	99.570039
3325.000000	99.569146
3324.000000	99.567907
3323.000000	99.566436
3322.000000	99.565188
3321.000000	99.564478
3320.000000	99.564173
3319.000000	99.563888
3318.000000	99.563364
3317.000000	99.562614
3316.000000	99.561809
3315.000000	99.561109
3314.000000	99.560514
3313.000000	99.559854
3312.000000	99.558941
3311.000000	99.557737
3310.000000	99.556366
3309.000000	99.554983
3308.000000	99.553731
3307.000000	99.552765
3306.000000	99.552156
3305.000000	99.551741
3304.000000	99.551240
3303.000000	99.550561
3302.000000	99.549873
3301.000000	99.549314
3300.000000	99.548831
3299.000000	99.548428
3298.000000	99.548321
3297.000000	99.548597
3296.000000	99.548813
3295.000000	99.548232
3294.000000	99.546446
3293.000000	99.543688
3292.000000	99.540672
3291.000000	99.538165
3290.000000	99.536656
3289.000000	99.536166
3288.000000	99.536286
3287.000000	99.536585
3286.000000	99.536931
3285.000000	99.537342
3284.000000	99.537685
3283.000000	99.537704
3282.000000	99.537296
3281.000000	99.536518
3280.000000	99.535329
3279.000000	99.533607
3278.000000	99.531487
3277.000000	99.529487
3276.000000	99.528067
3275.000000	99.527235
3274.000000	99.526755
3273.000000	99.526553
3272.000000	99.526726
3271.000000	99.527169
3270.000000	99.527429
3269.000000	99.527029
3268.000000	99.525842
3267.000000	99.524120
3266.000000	99.522295
3265.000000	99.520763
3264.000000	99.519739
3263.000000	99.519177
3262.000000	99.518848
3261.000000	99.518530
3260.000000	99.518116
3259.000000	99.517483
3258.000000	99.516366
3257.000000	99.514558
3256.000000	99.512265
3255.000000	99.510139
3254.000000	99.508740
3253.000000	99.508105
3252.000000	99.507932
3251.000000	99.508008
3250.000000	99.508302
3249.000000	99.508659
3248.000000	99.508666
3247.000000	99.507996
3246.000000	99.506765
3245.000000	99.505467
3244.000000	99.504545
3243.000000	99.504027
3242.000000	99.503570
3241.000000	99.502823
3240.000000	99.501776
3239.000000	99.500809
3238.000000	99.500324
3237.000000	99.500285
3236.000000	99.500136
3235.000000	99.499300
3234.000000	99.497740
3233.000000	99.496015
3232.000000	99.494754
3231.000000	99.494126
3230.000000	99.493878
3229.000000	99.493702
3228.000000	99.493490
3227.000000	99.493312
3226.000000	99.493277
3225.000000	99.493420
3224.000000	99.493600
3223.000000	99.493523
3222.000000	99.492986
3221.000000	99.492166
3220.000000	99.491500
3219.000000	99.491157
3218.000000	99.490693
3217.000000	99.489440
3216.000000	99.487176
3215.000000	99.484388
3214.000000	99.481980
3213.000000	99.480603
3212.000000	99.480319
3211.000000	99.480696
3210.000000	99.481068
3209.000000	99.480919
3208.000000	99.480126
3207.000000	99.479007
3206.000000	99.478106
3205.000000	99.477774
3204.000000	99.477849
3203.000000	99.477784
3202.000000	99.477162
3201.000000	99.476014
3200.000000	99.474652
3199.000000	99.473313
3198.000000	99.472041
3197.000000	99.470898
3196.000000	99.470062
3195.000000	99.469648
3194.000000	99.469521
3193.000000	99.469421
3192.000000	99.469228
3191.000000	99.469017
3190.000000	99.468850
3189.000000	99.468617
3188.000000	99.468118
3187.000000	99.467238
3186.000000	99.466024
3185.000000	99.464634
3184.000000	99.463291
3183.000000	99.462213
3182.000000	99.461502
3181.000000	99.461089
3180.000000	99.460762
3179.000000	99.460314
3178.000000	99.459685
3177.000000	99.458972
3176.000000	99.458312
3175.000000	99.457762
3174.000000	99.457262
3173.000000	99.456724
3172.000000	99.456119
3171.000000	99.455473
3170.000000	99.454799
3169.000000	99.454085
3168.000000	99.453333
3167.000000	99.452586
3166.000000	99.451918
3165.000000	99.451371
3164.000000	99.450922
3163.000000	99.450513
3162.000000	99.450074
3161.000000	99.449580
3160.000000	99.449049
3159.000000	99.448521
3158.000000	99.448038
3157.000000	99.447607
3156.000000	99.447209
3155.000000	99.446817
3154.000000	99.446415
3153.000000	99.446005
3152.000000	99.445591
3151.000000	99.445179
3150.000000	99.444777
3149.000000	99.444388
3148.000000	99.444015
3147.000000	99.443662
3146.000000	99.443335
3145.000000	99.443038
3144.000000	99.442764
3143.000000	99.442501
3142.000000	99.442233
3141.000000	99.441950
3140.000000	99.441653
3139.000000	99.441353
3138.000000	99.441060
3137.000000	99.440778
3136.000000	99.440506
3135.000000	99.440238
3134.000000	99.439968
3133.000000	99.439690
3132.000000	99.439404
3131.000000	99.439116
3130.000000	99.438835
3129.000000	99.438571
3128.000000	99.438322
3127.000000	99.438085
3126.000000	99.437861
3125.000000	99.437655
3124.000000	99.437471
3123.000000	99.437293
3122.000000	99.437085
3121.000000	99.436819
3120.000000	99.436495
3119.000000	99.436156
3118.000000	99.435856
3117.000000	99.435614
3116.000000	99.435411
3115.000000	99.435199
3114.000000	99.434932
3113.000000	99.434585
3112.000000	99.434186
3111.000000	99.433825
3110.000000	99.433587
3109.000000	99.433494
3108.000000	99.433479
3107.000000	99.433439
3106.000000	99.433318
3105.000000	99.433114
3104.000000	99.432847
3103.000000	99.432500
3102.000000	99.432039
3101.000000	99.431498
3100.000000	99.430998
3099.000000	99.430670
3098.000000	99.430528
3097.000000	99.430420
3096.000000	99.430147
3095.000000	99.429644
3094.000000	99.429032
3093.000000	99.428486
3092.000000	99.428093
3091.000000	99.427846
3090.000000	99.427707
3089.000000	99.427604
3088.000000	99.427413
3087.000000	99.427061
3086.000000	99.426668
3085.000000	99.426503
3084.000000	99.426716
3083.000000	99.427129
3082.000000	99.427346
3081.000000	99.427093
3080.000000	99.426406
3079.000000	99.425528
3078.000000	99.424697
3077.000000	99.424041
3076.000000	99.423609
3075.000000	99.423414
3074.000000	99.423425
3073.000000	99.423505
3072.000000	99.423385
3071.000000	99.422763
3070.000000	99.421509
3069.000000	99.419820
3068.000000	99.418232
3067.000000	99.417328
3066.000000	99.417348
3065.000000	99.418056
3064.000000	99.418837
3063.000000	99.419076
3062.000000	99.418527
3061.000000	99.417420
3060.000000	99.416340
3059.000000	99.415785
3058.000000	99.415788
3057.000000	99.416025
3056.000000	99.416278
3055.000000	99.416672
3054.000000	99.417360
3053.000000	99.418148
3052.000000	99.418651
3051.000000	99.418770
3050.000000	99.418817
3049.000000	99.419085
3048.000000	99.419428
3047.000000	99.419428
3046.000000	99.418945
3045.000000	99.418383
3044.000000	99.418302
3043.000000	99.418778
3042.000000	99.419238
3041.000000	99.419033
3040.000000	99.418199
3039.000000	99.417535
3038.000000	99.417847
3037.000000	99.419202
3036.000000	99.421034
3035.000000	99.422887
3034.000000	99.424768
3033.000000	99.426577
3032.000000	99.427561
3031.000000	99.426901
3030.000000	99.424940
3029.000000	99.423265
3028.000000	99.423090
3027.000000	99.423843
3026.000000	99.423815
3025.000000	99.422154
3024.000000	99.419845
3023.000000	99.418665
3022.000000	99.419491
3021.000000	99.421819
3020.000000	99.424590
3019.000000	99.427269
3018.000000	99.430123
3017.000000	99.433437
3016.000000	99.436563
3015.000000	99.438123
3014.000000	99.437575
3013.000000	99.436593
3012.000000	99.438339
3011.000000	99.444821
3010.000000	99.454862
3009.000000	99.464837
3008.000000	99.471469
3007.000000	99.473806
3006.000000	99.472953
3005.000000	99.470832
3004.000000	99.469288
3003.000000	99.469340
3002.000000	99.470409
3001.000000	99.470562
3000.000000	99.468370
2999.000000	99.464604
2998.000000	99.461602
2997.000000	99.460946
2996.000000	99.462231
2995.000000	99.463918
2994.000000	99.464748
2993.000000	99.464455
2992.000000	99.463892
2991.000000	99.464664
2990.000000	99.467933
2989.000000	99.473320
2988.000000	99.479477
2987.000000	99.485787
2986.000000	99.492684
2985.000000	99.500098
2984.000000	99.506775
2983.000000	99.511975
2982.000000	99.516937
2981.000000	99.523655
2980.000000	99.532667
2979.000000	99.542820
2978.000000	99.552686
2977.000000	99.561305
2976.000000	99.568144
2975.000000	99.573624
2974.000000	99.579632
2973.000000	99.588335
2972.000000	99.600209
2971.000000	99.614010
2970.000000	99.628692
2969.000000	99.644373
2968.000000	99.661402
2967.000000	99.679777
2966.000000	99.699848
2965.000000	99.722143
2964.000000	99.745600
2963.000000	99.767139
2962.000000	99.784249
2961.000000	99.797306
2960.000000	99.808173
2959.000000	99.817245
2958.000000	99.823436
2957.000000	99.826841
2956.000000	99.829568
2955.000000	99.833274
2954.000000	99.837010
2953.000000	99.838404
2952.000000	99.836438
2951.000000	99.832669
2950.000000	99.830310
2949.000000	99.832465
2948.000000	99.840509
2947.000000	99.853266
2946.000000	99.868079
2945.000000	99.883456
2944.000000	99.900779
2943.000000	99.923090
2942.000000	99.952223
2941.000000	99.987164
2940.000000	100.024773
2939.000000	100.061996
2938.000000	100.098230
2937.000000	100.136250
2936.000000	100.180024
2935.000000	100.230165
2934.000000	100.281634
2933.000000	100.327249
2932.000000	100.364009
2931.000000	100.395143
2930.000000	100.425846
2929.000000	100.457810
2928.000000	100.488172
2927.000000	100.512605
2926.000000	100.528296
2925.000000	100.534424
2924.000000	100.530853
2923.000000	100.516815
2922.000000	100.490951
2921.000000	100.452993
2920.000000	100.405446
2919.000000	100.352973
2918.000000	100.299705
2917.000000	100.247439
2916.000000	100.196359
2915.000000	100.146584
2914.000000	100.098658
2913.000000	100.053610
2912.000000	100.013460
2911.000000	99.980826
2910.000000	99.956660
2909.000000	99.938469
2908.000000	99.921828
2907.000000	99.903720
2906.000000	99.883790
2905.000000	99.862925
2904.000000	99.842054
2903.000000	99.822426
2902.000000	99.805392
2901.000000	99.791259
2900.000000	99.779064
2899.000000	99.767856
2898.000000	99.757203
2897.000000	99.746155
2896.000000	99.733288
2895.000000	99.718780
2894.000000	99.705154
2893.000000	99.694457
2892.000000	99.685424
2891.000000	99.674896
2890.000000	99.661643
2889.000000	99.647513
2888.000000	99.635150
2887.000000	99.626044
2886.000000	99.620672
2885.000000	99.618839
2884.000000	99.619283
2883.000000	99.620149
2882.000000	99.620732
2881.000000	99.622095
2880.000000	99.625379
2879.000000	99.630136
2878.000000	99.634987
2877.000000	99.639445
2876.000000	99.644463
2875.000000	99.651363
2874.000000	99.660631
2873.000000	99.671404
2872.000000	99.681707
2871.000000	99.689597
2870.000000	99.694665
2869.000000	99.698431
2868.000000	99.702992
2867.000000	99.709651
2866.000000	99.719290
2865.000000	99.733543
2864.000000	99.754343
2863.000000	99.781880
2862.000000	99.813795
2861.000000	99.847157
2860.000000	99.880891
2859.000000	99.915249
2858.000000	99.948862
2857.000000	99.977566
2856.000000	99.997219
2855.000000	100.007240
2854.000000	100.010059
2853.000000	100.006594
2852.000000	99.993411
2851.000000	99.965707
2850.000000	99.922943
2849.000000	99.870707
2848.000000	99.816985
2847.000000	99.767423
2846.000000	99.724176
2845.000000	99.687521
2844.000000	99.656751
2843.000000	99.630019
2842.000000	99.605065
2841.000000	99.580935
2840.000000	99.558669
2839.000000	99.540122
2838.000000	99.526372
2837.000000	99.516972
2836.000000	99.509983
2835.000000	99.502695
2834.000000	99.493194
2833.000000	99.481814
2832.000000	99.470727
2831.000000	99.461940
2830.000000	99.456150
2829.000000	99.453583
2828.000000	99.454688
2827.000000	99.458920
2826.000000	99.463501
2825.000000	99.465007
2824.000000	99.462551
2823.000000	99.458435
2822.000000	99.455284
2821.000000	99.453530
2820.000000	99.452303
2819.000000	99.451614
2818.000000	99.452146
2817.000000	99.453131
2816.000000	99.452141
2815.000000	99.447859
2814.000000	99.442221
2813.000000	99.438825
2812.000000	99.439290
2811.000000	99.441856
2810.000000	99.443483
2809.000000	99.442754
2808.000000	99.440666
2807.000000	99.439202
2806.000000	99.439539
2805.000000	99.441289
2804.000000	99.442798
2803.000000	99.442128
2802.000000	99.438363
2801.000000	99.432433
2800.000000	99.426665
2799.000000	99.423266
2798.000000	99.423083
2797.000000	99.425669
2796.000000	99.430105
2795.000000	99.435397
2794.000000	99.440214
2793.000000	99.442919
2792.000000	99.442474
2791.000000	99.439445
2790.000000	99.435942
2789.000000	99.434197
2788.000000	99.434934
2787.000000	99.437059
2786.000000	99.438981
2785.000000	99.440150
2784.000000	99.441186
2783.000000	99.442688
2782.000000	99.444404
2781.000000	99.445735
2780.000000	99.446630
2779.000000	99.447525
2778.000000	99.448611
2777.000000	99.449616
2776.000000	99.450295
2775.000000	99.450803
2774.000000	99.451485
2773.000000	99.452473
2772.000000	99.453621
2771.000000	99.454734
2770.000000	99.455738
2769.000000	99.456624
2768.000000	99.457349
2767.000000	99.457862
2766.000000	99.458240
2765.000000	99.458735
2764.000000	99.459594
2763.000000	99.460811
2762.000000	99.462078
2761.000000	99.463038
2760.000000	99.463630
2759.000000	99.464101
2758.000000	99.464732
2757.000000	99.465602
2756.000000	99.466685
2755.000000	99.467979
2754.000000	99.469422
2753.000000	99.470756
2752.000000	99.471692
2751.000000	99.472256
2750.000000	99.472862
2749.000000	99.473847
2748.000000	99.475065
2747.000000	99.476111
2746.000000	99.476811
2745.000000	99.477311
2744.000000	99.477767
2743.000000	99.478156
2742.000000	99.478427
2741.000000	99.478686
2740.000000	99.479124
2739.000000	99.479835
2738.000000	99.480762
2737.000000	99.481834
2736.000000	99.483135
2735.000000	99.484854
2734.000000	99.487018
2733.000000	99.489218
2732.000000	99.490789
2731.000000	99.491447
2730.000000	99.491649
2729.000000	99.492144
2728.000000	99.493185
2727.000000	99.494450
2726.000000	99.495654
2725.000000	99.496852
2724.000000	99.498059
2723.000000	99.498878
2722.000000	99.498799
2721.000000	99.497834
2720.000000	99.496719
2719.000000	99.496404
2718.000000	99.497333
2717.000000	99.499040
2716.000000	99.500539
2715.000000	99.501323
2714.000000	99.501860
2713.000000	99.502910
2712.000000	99.504433
2711.000000	99.505508
2710.000000	99.505477
2709.000000	99.504879
2708.000000	99.504948
2707.000000	99.506278
2706.000000	99.508322
2705.000000	99.510244
2704.000000	99.511979
2703.000000	99.514090
2702.000000	99.516638
2701.000000	99.518645
2700.000000	99.519055
2699.000000	99.517884
2698.000000	99.516049
2697.000000	99.514142
2696.000000	99.511949
2695.000000	99.509384
2694.000000	99.507322
2693.000000	99.506927
2692.000000	99.508377
2691.000000	99.510718
2690.000000	99.512942
2689.000000	99.514802
2688.000000	99.516482
2687.000000	99.517939
2686.000000	99.518909
2685.000000	99.519432
2684.000000	99.520149
2683.000000	99.521916
2682.000000	99.524956
2681.000000	99.528299
2680.000000	99.530293
2679.000000	99.529966
2678.000000	99.527763
2677.000000	99.525073
2676.000000	99.523067
2675.000000	99.522163
2674.000000	99.522409
2673.000000	99.523725
2672.000000	99.525616
2671.000000	99.527157
2670.000000	99.527726
2669.000000	99.527588
2668.000000	99.527451
2667.000000	99.527582
2666.000000	99.527645
2665.000000	99.527366
2664.000000	99.526976
2663.000000	99.526872
2662.000000	99.527149
2661.000000	99.527716
2660.000000	99.528690
2659.000000	99.530306
2658.000000	99.532413
2657.000000	99.534378
2656.000000	99.535650
2655.000000	99.536232
2654.000000	99.536384
2653.000000	99.536144
2652.000000	99.535517
2651.000000	99.535025
2650.000000	99.535513
2649.000000	99.537158
2648.000000	99.539036
2647.000000	99.540077
2646.000000	99.540326
2645.000000	99.540781
2644.000000	99.541997
2643.000000	99.543334
2642.000000	99.543793
2641.000000	99.543151
2640.000000	99.541984
2639.000000	99.540947
2638.000000	99.540294
2637.000000	99.540009
2636.000000	99.540031
2635.000000	99.540331
2634.000000	99.540986
2633.000000	99.542191
2632.000000	99.543975
2631.000000	99.545858
2630.000000	99.546917
2629.000000	99.546321
2628.000000	99.543823
2627.000000	99.539999
2626.000000	99.536189
2625.000000	99.533891
2624.000000	99.533882
2623.000000	99.535696
2622.000000	99.537943
2621.000000	99.539435
2620.000000	99.540043
2619.000000	99.540438
2618.000000	99.541259
2617.000000	99.542686
2616.000000	99.544561
2615.000000	99.546531
2614.000000	99.548025
2613.000000	99.548570
2612.000000	99.548426
2611.000000	99.548582
2610.000000	99.549747
2609.000000	99.551442
2608.000000	99.552461
2607.000000	99.552135
2606.000000	99.550763
2605.000000	99.548993
2604.000000	99.547306
2603.000000	99.546084
2602.000000	99.545580
2601.000000	99.545589
2600.000000	99.545616
2599.000000	99.545637
2598.000000	99.546245
2597.000000	99.547762
2596.000000	99.549708
2595.000000	99.551391
2594.000000	99.552620
2593.000000	99.553479
2592.000000	99.553815
2591.000000	99.553491
2590.000000	99.552894
2589.000000	99.552740
2588.000000	99.553330
2587.000000	99.554376
2586.000000	99.555435
2585.000000	99.556268
2584.000000	99.556870
2583.000000	99.557378
2582.000000	99.557989
2581.000000	99.558788
2580.000000	99.559634
2579.000000	99.560283
2578.000000	99.560647
2577.000000	99.560859
2576.000000	99.561127
2575.000000	99.561538
2574.000000	99.562047
2573.000000	99.562576
2572.000000	99.563072
2571.000000	99.563538
2570.000000	99.564005
2569.000000	99.564495
2568.000000	99.565009
2567.000000	99.565547
2566.000000	99.566108
2565.000000	99.566694
2564.000000	99.567303
2563.000000	99.567926
2562.000000	99.568555
2561.000000	99.569184
2560.000000	99.569810
2559.000000	99.570431
2558.000000	99.571042
2557.000000	99.571634
2556.000000	99.572200
2555.000000	99.572742
2554.000000	99.573267
2553.000000	99.573792
2552.000000	99.574330
2551.000000	99.574885
2550.000000	99.575459
2549.000000	99.576048
2548.000000	99.576645
2547.000000	99.577235
2546.000000	99.577792
2545.000000	99.578310
2544.000000	99.578840
2543.000000	99.579450
2542.000000	99.580184
2541.000000	99.581046
2540.000000	99.581996
2539.000000	99.582911
2538.000000	99.583622
2537.000000	99.584070
2536.000000	99.584419
2535.000000	99.584955
2534.000000	99.585833
2533.000000	99.586956
2532.000000	99.588031
2531.000000	99.588790
2530.000000	99.589239
2529.000000	99.589712
2528.000000	99.590596
2527.000000	99.591912
2526.000000	99.593226
2525.000000	99.594014
2524.000000	99.594026
2523.000000	99.593405
2522.000000	99.592672
2521.000000	99.592449
2520.000000	99.592956
2519.000000	99.593713
2518.000000	99.594095
2517.000000	99.594203
2516.000000	99.594740
2515.000000	99.596054
2514.000000	99.597900
2513.000000	99.600086
2512.000000	99.602716
2511.000000	99.605627
2510.000000	99.608113
2509.000000	99.609580
2508.000000	99.610116
2507.000000	99.610172
2506.000000	99.610090
2505.000000	99.610171
2504.000000	99.610818
2503.000000	99.612176
2502.000000	99.613828
2501.000000	99.615232
2500.000000	99.616339
2499.000000	99.617480
2498.000000	99.618786
2497.000000	99.620050
2496.000000	99.621084
2495.000000	99.621911
2494.000000	99.622582
2493.000000	99.623092
2492.000000	99.623475
2491.000000	99.623775
2490.000000	99.623959
2489.000000	99.624054
2488.000000	99.624283
2487.000000	99.624845
2486.000000	99.625694
2485.000000	99.626703
2484.000000	99.627905
2483.000000	99.629347
2482.000000	99.630768
2481.000000	99.631721
2480.000000	99.632078
2479.000000	99.632210
2478.000000	99.632666
2477.000000	99.633640
2476.000000	99.634919
2475.000000	99.636169
2474.000000	99.637229
2473.000000	99.638166
2472.000000	99.639083
2471.000000	99.639996
2470.000000	99.640861
2469.000000	99.641661
2468.000000	99.642432
2467.000000	99.643205
2466.000000	99.643971
2465.000000	99.644710
2464.000000	99.645433
2463.000000	99.646180
2462.000000	99.646982
2461.000000	99.647833
2460.000000	99.648701
2459.000000	99.649585
2458.000000	99.650552
2457.000000	99.651662
2456.000000	99.652876
2455.000000	99.654078
2454.000000	99.655174
2453.000000	99.656177
2452.000000	99.657148
2451.000000	99.658156
2450.000000	99.659225
2449.000000	99.660343
2448.000000	99.661480
2447.000000	99.662600
2446.000000	99.663684
2445.000000	99.664732
2444.000000	99.665761
2443.000000	99.666796
2442.000000	99.667853
2441.000000	99.668940
2440.000000	99.670053
2439.000000	99.671179
2438.000000	99.672299
2437.000000	99.673410
2436.000000	99.674525
2435.000000	99.675669
2434.000000	99.676854
2433.000000	99.678063
2432.000000	99.679250
2431.000000	99.680363
2430.000000	99.681376
2429.000000	99.682347
2428.000000	99.683433
2427.000000	99.684775
2426.000000	99.686325
2425.000000	99.687844
2424.000000	99.689162
2423.000000	99.690321
2422.000000	99.691378
2421.000000	99.692266
2420.000000	99.692963
2419.000000	99.693628
2418.000000	99.694383
2417.000000	99.695112
2416.000000	99.695718
2415.000000	99.696442
2414.000000	99.697617
2413.000000	99.699120
2412.000000	99.700406
2411.000000	99.701189
2410.000000	99.701778
2409.000000	99.702567
2408.000000	99.703486
2407.000000	99.704260
2406.000000	99.704913
2405.000000	99.705704
2404.000000	99.706705
2403.000000	99.707725
2402.000000	99.708619
2401.000000	99.709466
2400.000000	99.710440
2399.000000	99.711658
2398.000000	99.713139
2397.000000	99.714784
2396.000000	99.716355
2395.000000	99.717559
2394.000000	99.718219
2393.000000	99.718382
2392.000000	99.718296
2391.000000	99.718237
2390.000000	99.718277
2389.000000	99.718234
2388.000000	99.717959
2387.000000	99.717648
2386.000000	99.717743
2385.000000	99.718439
2384.000000	99.719407
2383.000000	99.720076
2382.000000	99.720196
2381.000000	99.720033
2380.000000	99.720086
2379.000000	99.720634
2378.000000	99.721555
2377.000000	99.722442
2376.000000	99.722912
2375.000000	99.722885
2374.000000	99.722607
2373.000000	99.722443
2372.000000	99.722563
2371.000000	99.722900
2370.000000	99.723366
2369.000000	99.724019
2368.000000	99.724930
2367.000000	99.725997
2366.000000	99.726964
2365.000000	99.727597
2364.000000	99.727846
2363.000000	99.727831
2362.000000	99.727778
2361.000000	99.727895
2360.000000	99.728230
2359.000000	99.728708
2358.000000	99.729225
2357.000000	99.729711
2356.000000	99.730149
2355.000000	99.730555
2354.000000	99.730965
2353.000000	99.731398
2352.000000	99.731850
2351.000000	99.732312
2350.000000	99.732785
2349.000000	99.733273
2348.000000	99.733778
2347.000000	99.734304
2346.000000	99.734846
2345.000000	99.735391
2344.000000	99.735927
2343.000000	99.736455
2342.000000	99.736986
2341.000000	99.737528
2340.000000	99.738077
2339.000000	99.738631
2338.000000	99.739191
2337.000000	99.739760
2336.000000	99.740334
2335.000000	99.740912
2334.000000	99.741494
2333.000000	99.742083
2332.000000	99.742679
2331.000000	99.743278
2330.000000	99.743875
2329.000000	99.744472
2328.000000	99.745070
2327.000000	99.745664
2326.000000	99.746248
2325.000000	99.746817
2324.000000	99.747373
2323.000000	99.747922
2322.000000	99.748468
2321.000000	99.749011
2320.000000	99.749544
2319.000000	99.750057
2318.000000	99.750542
2317.000000	99.751013
2316.000000	99.751484
2315.000000	99.751933
2314.000000	99.752324
2313.000000	99.752691
2312.000000	99.753114
2311.000000	99.753596
2310.000000	99.754043
2309.000000	99.754384
2308.000000	99.754661
2307.000000	99.754954
2306.000000	99.755307
2305.000000	99.755707
2304.000000	99.756104
2303.000000	99.756425
2302.000000	99.756665
2301.000000	99.756964
2300.000000	99.757460
2299.000000	99.758095
2298.000000	99.758651
2297.000000	99.758985
2296.000000	99.759121
2295.000000	99.759190
2294.000000	99.759405
2293.000000	99.759931
2292.000000	99.760591
2291.000000	99.760830
2290.000000	99.760330
2289.000000	99.759509
2288.000000	99.759185
2287.000000	99.759613
2286.000000	99.760270
2285.000000	99.760561
2284.000000	99.760456
2283.000000	99.760198
2282.000000	99.759821
2281.000000	99.759209
2280.000000	99.758387
2279.000000	99.757511
2278.000000	99.756728
2277.000000	99.756241
2276.000000	99.756278
2275.000000	99.756835
2274.000000	99.757672
2273.000000	99.758642
2272.000000	99.759757
2271.000000	99.760826
2270.000000	99.761411
2269.000000	99.761351
2268.000000	99.761015
2267.000000	99.760782
2266.000000	99.760513
2265.000000	99.759929
2264.000000	99.759294
2263.000000	99.759242
2262.000000	99.760002
2261.000000	99.761147
2260.000000	99.762121
2259.000000	99.762800
2258.000000	99.763355
2257.000000	99.763778
2256.000000	99.763855
2255.000000	99.763514
2254.000000	99.763011
2253.000000	99.762751
2252.000000	99.762912
2251.000000	99.763331
2250.000000	99.763673
2249.000000	99.763757
2248.000000	99.763715
2247.000000	99.763838
2246.000000	99.764275
2245.000000	99.764916
2244.000000	99.765538
2243.000000	99.766025
2242.000000	99.766438
2241.000000	99.766900
2240.000000	99.767460
2239.000000	99.768082
2238.000000	99.768727
2237.000000	99.769397
2236.000000	99.770078
2235.000000	99.770673
2234.000000	99.771066
2233.000000	99.771256
2232.000000	99.771382
2231.000000	99.771616
2230.000000	99.772043
2229.000000	99.772637
2228.000000	99.773318
2227.000000	99.773995
2226.000000	99.774593
2225.000000	99.775078
2224.000000	99.775492
2223.000000	99.775940
2222.000000	99.776506
2221.000000	99.777183
2220.000000	99.777898
2219.000000	99.778597
2218.000000	99.779302
2217.000000	99.780049
2216.000000	99.780804
2215.000000	99.781476
2214.000000	99.782028
2213.000000	99.782515
2212.000000	99.783040
2211.000000	99.783656
2210.000000	99.784340
2209.000000	99.785047
2208.000000	99.785765
2207.000000	99.786511
2206.000000	99.787283
2205.000000	99.788057
2204.000000	99.788814
2203.000000	99.789558
2202.000000	99.790296
2201.000000	99.791031
2200.000000	99.791767
2199.000000	99.792509
2198.000000	99.793259
2197.000000	99.794016
2196.000000	99.794771
2195.000000	99.795520
2194.000000	99.796265
2193.000000	99.797008
2192.000000	99.797756
2191.000000	99.798514
2190.000000	99.799279
2189.000000	99.800043
2188.000000	99.800800
2187.000000	99.801547
2186.000000	99.802286
2185.000000	99.803023
2184.000000	99.803760
2183.000000	99.804500
2182.000000	99.805245
2181.000000	99.805995
2180.000000	99.806755
2179.000000	99.807529
2178.000000	99.808318
2177.000000	99.809118
2176.000000	99.809921
2175.000000	99.810721
2174.000000	99.811516
2173.000000	99.812313
2172.000000	99.813121
2171.000000	99.813945
2170.000000	99.814778
2169.000000	99.815609
2168.000000	99.816431
2167.000000	99.817249
2166.000000	99.818071
2165.000000	99.818888
2164.000000	99.819687
2163.000000	99.820464
2162.000000	99.821234
2161.000000	99.822019
2160.000000	99.822829
2159.000000	99.823652
2158.000000	99.824457
2157.000000	99.825229
2156.000000	99.825984
2155.000000	99.826771
2154.000000	99.827619
2153.000000	99.828507
2152.000000	99.829384
2151.000000	99.830214
2150.000000	99.831004
2149.000000	99.831776
2148.000000	99.832535
2147.000000	99.833286
2146.000000	99.834071
2145.000000	99.834935
2144.000000	99.835861
2143.000000	99.836805
2142.000000	99.837786
2141.000000	99.838868
2140.000000	99.840045
2139.000000	99.841196
2138.000000	99.842252
2137.000000	99.843301
2136.000000	99.844452
2135.000000	99.845627
2134.000000	99.846623
2133.000000	99.847418
2132.000000	99.848291
2131.000000	99.849475
2130.000000	99.850838
2129.000000	99.852064
2128.000000	99.853035
2127.000000	99.853937
2126.000000	99.854994
2125.000000	99.856227
2124.000000	99.857488
2123.000000	99.858652
2122.000000	99.859737
2121.000000	99.860848
2120.000000	99.862049
2119.000000	99.863325
2118.000000	99.864650
2117.000000	99.866045
2116.000000	99.867523
2115.000000	99.869022
2114.000000	99.870435
2113.000000	99.871711
2112.000000	99.872887
2111.000000	99.874024
2110.000000	99.875155
2109.000000	99.876299
2108.000000	99.877454
2107.000000	99.878581
2106.000000	99.879652
2105.000000	99.880760
2104.000000	99.882075
2103.000000	99.883643
2102.000000	99.885333
2101.000000	99.886936
2100.000000	99.888365
2099.000000	99.889682
2098.000000	99.891001
2097.000000	99.892376
2096.000000	99.893777
2095.000000	99.895166
2094.000000	99.896516
2093.000000	99.897779
2092.000000	99.898909
2091.000000	99.899964
2090.000000	99.901102
2089.000000	99.902431
2088.000000	99.903884
2087.000000	99.905258
2086.000000	99.906432
2085.000000	99.907492
2084.000000	99.908611
2083.000000	99.909830
2082.000000	99.911039
2081.000000	99.912176
2080.000000	99.913330
2079.000000	99.914607
2078.000000	99.915934
2077.000000	99.917085
2076.000000	99.917919
2075.000000	99.918531
2074.000000	99.919189
2073.000000	99.920072
2072.000000	99.921112
2071.000000	99.922118
2070.000000	99.923051
2069.000000	99.924065
2068.000000	99.925245
2067.000000	99.926402
2066.000000	99.927289
2065.000000	99.927981
2064.000000	99.928835
2063.000000	99.930054
2062.000000	99.931449
2061.000000	99.932689
2060.000000	99.933607
2059.000000	99.934192
2058.000000	99.934446
2057.000000	99.934462
2056.000000	99.934476
2055.000000	99.934625
2054.000000	99.934839
2053.000000	99.935105
2052.000000	99.935651
2051.000000	99.936649
2050.000000	99.937802
2049.000000	99.938532
2048.000000	99.938655
2047.000000	99.938589
2046.000000	99.938812
2045.000000	99.939230
2044.000000	99.939362
2043.000000	99.939010
2042.000000	99.938510
2041.000000	99.938353
2040.000000	99.938697
2039.000000	99.939289
2038.000000	99.939726
2037.000000	99.939782
2036.000000	99.939517
2035.000000	99.939199
2034.000000	99.939091
2033.000000	99.939254
2032.000000	99.939503
2031.000000	99.939549
2030.000000	99.939256
2029.000000	99.938798
2028.000000	99.938580
2027.000000	99.938938
2026.000000	99.939888
2025.000000	99.941071
2024.000000	99.942000
2023.000000	99.942416
2022.000000	99.942404
2021.000000	99.942176
2020.000000	99.941808
2019.000000	99.941304
2018.000000	99.940873
2017.000000	99.940919
2016.000000	99.941581
2015.000000	99.942434
2014.000000	99.942912
2013.000000	99.942942
2012.000000	99.942852
2011.000000	99.942664
2010.000000	99.941965
2009.000000	99.940702
2008.000000	99.939664
2007.000000	99.939652
2006.000000	99.940441
2005.000000	99.941034
2004.000000	99.940911
2003.000000	99.940553
2002.000000	99.940681
2001.000000	99.941524
2000.000000	99.942977
1999.000000	99.944961
1998.000000	99.947283
1997.000000	99.949354
1996.000000	99.950633
1995.000000	99.951335
1994.000000	99.952296
1993.000000	99.953926
1992.000000	99.955510
1991.000000	99.955979
1990.000000	99.955171
1989.000000	99.953898
1988.000000	99.952942
1987.000000	99.952341
1986.000000	99.951624
1985.000000	99.950488
1984.000000	99.949080
1983.000000	99.947805
1982.000000	99.947022
1981.000000	99.946851
1980.000000	99.947076
1979.000000	99.947317
1978.000000	99.947474
1977.000000	99.947828
1976.000000	99.948576
1975.000000	99.949415
1974.000000	99.949805
1973.000000	99.949690
1972.000000	99.949737
1971.000000	99.950732
1970.000000	99.952752
1969.000000	99.954926
1968.000000	99.956096
1967.000000	99.955929
1966.000000	99.955288
1965.000000	99.955330
1964.000000	99.956233
1963.000000	99.957171
1962.000000	99.957448
1961.000000	99.957331
1960.000000	99.957536
1959.000000	99.958176
1958.000000	99.958657
1957.000000	99.958551
1956.000000	99.958094
1955.000000	99.957744
1954.000000	99.957603
1953.000000	99.957513
1952.000000	99.957478
1951.000000	99.957670
1950.000000	99.958049
1949.000000	99.958277
1948.000000	99.958101
1947.000000	99.957689
1946.000000	99.957514
1945.000000	99.957895
1944.000000	99.958708
1943.000000	99.959497
1942.000000	99.959907
1941.000000	99.959981
1940.000000	99.959949
1939.000000	99.959884
1938.000000	99.959699
1937.000000	99.959358
1936.000000	99.958937
1935.000000	99.958511
1934.000000	99.958045
1933.000000	99.957449
1932.000000	99.956753
1931.000000	99.956152
1930.000000	99.955841
1929.000000	99.955854
1928.000000	99.956012
1927.000000	99.956045
1926.000000	99.955791
1925.000000	99.955263
1924.000000	99.954607
1923.000000	99.953956
1922.000000	99.953329
1921.000000	99.952588
1920.000000	99.951513
1919.000000	99.950140
1918.000000	99.949080
1917.000000	99.949138
1916.000000	99.950373
1915.000000	99.951742
1914.000000	99.952079
1913.000000	99.951168
1912.000000	99.949692
1911.000000	99.948304
1910.000000	99.947063
1909.000000	99.945891
1908.000000	99.944920
1907.000000	99.944131
1906.000000	99.943108
1905.000000	99.941507
1904.000000	99.939552
1903.000000	99.937760
1902.000000	99.936469
1901.000000	99.935746
1900.000000	99.935350
1899.000000	99.934860
1898.000000	99.934147
1897.000000	99.933720
1896.000000	99.934209
1895.000000	99.935324
1894.000000	99.935833
1893.000000	99.934789
1892.000000	99.932210
1891.000000	99.928686
1890.000000	99.925067
1889.000000	99.922541
1888.000000	99.922002
1887.000000	99.923043
1886.000000	99.924325
1885.000000	99.925098
1884.000000	99.925764
1883.000000	99.926696
1882.000000	99.927254
1881.000000	99.926564
1880.000000	99.924655
1879.000000	99.922375
1878.000000	99.920653
1877.000000	99.920192
1876.000000	99.921428
1875.000000	99.924139
1874.000000	99.927299
1873.000000	99.929919
1872.000000	99.931807
1871.000000	99.933116
1870.000000	99.933591
1869.000000	99.932905
1868.000000	99.931727
1867.000000	99.931323
1866.000000	99.932163
1865.000000	99.934011
1864.000000	99.936442
1863.000000	99.938399
1862.000000	99.938273
1861.000000	99.935647
1860.000000	99.932687
1859.000000	99.932428
1858.000000	99.935818
1857.000000	99.941300
1856.000000	99.946829
1855.000000	99.951583
1854.000000	99.955617
1853.000000	99.959048
1852.000000	99.962032
1851.000000	99.965020
1850.000000	99.968530
1849.000000	99.972535
1848.000000	99.976329
1847.000000	99.978900
1846.000000	99.979537
1845.000000	99.978509
1844.000000	99.977295
1843.000000	99.977292
1842.000000	99.978223
1841.000000	99.978809
1840.000000	99.978542
1839.000000	99.978143
1838.000000	99.978550
1837.000000	99.980038
1836.000000	99.982432
1835.000000	99.985384
1834.000000	99.988193
1833.000000	99.989991
1832.000000	99.990533
1831.000000	99.990708
1830.000000	99.991606
1829.000000	99.993263
1828.000000	99.995134
1827.000000	99.996954
1826.000000	99.998442
1825.000000	99.998706
1824.000000	99.997168
1823.000000	99.994999
1822.000000	99.994186
1821.000000	99.995509
1820.000000	99.998062
1819.000000	100.000428
1818.000000	100.001826
1817.000000	100.002015
1816.000000	100.000933
1815.000000	99.998873
1814.000000	99.996832
1813.000000	99.996161
1812.000000	99.997697
1811.000000	100.001118
1810.000000	100.005023
1809.000000	100.008127
1808.000000	100.010132
1807.000000	100.011160
1806.000000	100.011214
1805.000000	100.010667
1804.000000	100.010624
1803.000000	100.012008
1802.000000	100.014626
1801.000000	100.017328
1800.000000	100.019230
1799.000000	100.020278
1798.000000	100.020433
1797.000000	100.019710
1796.000000	100.018709
1795.000000	100.018259
1794.000000	100.019169
1793.000000	100.022228
1792.000000	100.027453
1791.000000	100.033357
1790.000000	100.037640
1789.000000	100.039096
1788.000000	100.038677
1787.000000	100.038431
1786.000000	100.039298
1785.000000	100.040530
1784.000000	100.041718
1783.000000	100.044200
1782.000000	100.049870
1781.000000	100.058573
1780.000000	100.067422
1779.000000	100.073789
1778.000000	100.077647
1777.000000	100.080521
1776.000000	100.083165
1775.000000	100.085258
1774.000000	100.087256
1773.000000	100.090688
1772.000000	100.095345
1771.000000	100.099563
1770.000000	100.103486
1769.000000	100.109068
1768.000000	100.118045
1767.000000	100.129590
1766.000000	100.140366
1765.000000	100.147982
1764.000000	100.153561
1763.000000	100.161250
1762.000000	100.174306
1761.000000	100.191108
1760.000000	100.207733
1759.000000	100.223161
1758.000000	100.239581
1757.000000	100.258810
1756.000000	100.279077
1755.000000	100.297814
1754.000000	100.315843
1753.000000	100.336563
1752.000000	100.362062
1751.000000	100.389338
1750.000000	100.411982
1749.000000	100.426921
1748.000000	100.436554
1747.000000	100.445358
1746.000000	100.456505
1745.000000	100.469421
1744.000000	100.480327
1743.000000	100.485790
1742.000000	100.485241
1741.000000	100.479734
1740.000000	100.469961
1739.000000	100.456896
1738.000000	100.442622
1737.000000	100.427578
1736.000000	100.409575
1735.000000	100.386273
1734.000000	100.357996
1733.000000	100.329725
1732.000000	100.306347
1731.000000	100.288728
1730.000000	100.276710
1729.000000	100.269492
1728.000000	100.264282
1727.000000	100.258789
1726.000000	100.253091
1725.000000	100.248089
1724.000000	100.243105
1723.000000	100.236322
1722.000000	100.226870
1721.000000	100.216531
1720.000000	100.209179
1719.000000	100.208903
1718.000000	100.214300
1717.000000	100.216702
1716.000000	100.212644
1715.000000	100.207833
1714.000000	100.206310
1713.000000	100.206301
1712.000000	100.204136
1711.000000	100.198412
1710.000000	100.190621
1709.000000	100.182851
1708.000000	100.175780
1707.000000	100.169273
1706.000000	100.163956
1705.000000	100.161017
1704.000000	100.160847
1703.000000	100.161328
1702.000000	100.159841
1701.000000	100.156480
1700.000000	100.154003
1699.000000	100.154599
1698.000000	100.156289
1697.000000	100.155082
1696.000000	100.150104
1695.000000	100.144853
1694.000000	100.142229
1693.000000	100.141578
1692.000000	100.141488
1691.000000	100.141483
1690.000000	100.141206
1689.000000	100.139845
1688.000000	100.137030
1687.000000	100.133685
1686.000000	100.131718
1685.000000	100.132434
1684.000000	100.132642
1683.000000	100.129371
1682.000000	100.125356
1681.000000	100.122981
1680.000000	100.121961
1679.000000	100.121662
1678.000000	100.121648
1677.000000	100.121874
1676.000000	100.122034
1675.000000	100.121737
1674.000000	100.121262
1673.000000	100.121106
1672.000000	100.121031
1671.000000	100.120513
1670.000000	100.119314
1669.000000	100.117849
1668.000000	100.116729
1667.000000	100.115913
1666.000000	100.114956
1665.000000	100.113612
1664.000000	100.112094
1663.000000	100.110846
1662.000000	100.110140
1661.000000	100.109984
1660.000000	100.110093
1659.000000	100.110229
1658.000000	100.110227
1657.000000	100.109885
1656.000000	100.108482
1655.000000	100.105446
1654.000000	100.101660
1653.000000	100.099393
1652.000000	100.099998
1651.000000	100.102082
1650.000000	100.103878
1649.000000	100.105082
1648.000000	100.105854
1647.000000	100.105508
1646.000000	100.104061
1645.000000	100.102830
1644.000000	100.102515
1643.000000	100.102424
1642.000000	100.101859
1641.000000	100.100717
1640.000000	100.099621
1639.000000	100.099168
1638.000000	100.098997
1637.000000	100.098166
1636.000000	100.096563
1635.000000	100.096220
1634.000000	100.098866
1633.000000	100.102554
1632.000000	100.104185
1631.000000	100.102780
1630.000000	100.099990
1629.000000	100.098720
1628.000000	100.100053
1627.000000	100.102332
1626.000000	100.103695
1625.000000	100.104157
1624.000000	100.105022
1623.000000	100.107377
1622.000000	100.111425
1621.000000	100.116436
1620.000000	100.120800
1619.000000	100.123245
1618.000000	100.124403
1617.000000	100.126796
1616.000000	100.131251
1615.000000	100.135316
1614.000000	100.137386
1613.000000	100.138631
1612.000000	100.140836
1611.000000	100.144179
1610.000000	100.147432
1609.000000	100.150050
1608.000000	100.152980
1607.000000	100.157253
1606.000000	100.162757
1605.000000	100.168376
1604.000000	100.172804
1603.000000	100.175593
1602.000000	100.177560
1601.000000	100.179890
1600.000000	100.182868
1599.000000	100.185932
1598.000000	100.188868
1597.000000	100.192073
1596.000000	100.195583
1595.000000	100.198580
1594.000000	100.200401
1593.000000	100.201555
1592.000000	100.203190
1591.000000	100.205918
1590.000000	100.209639
1589.000000	100.214076
1588.000000	100.218871
1587.000000	100.223331
1586.000000	100.226678
1585.000000	100.228819
1584.000000	100.230530
1583.000000	100.232769
1582.000000	100.235868
1581.000000	100.239354
1580.000000	100.242479
1579.000000	100.244847
1578.000000	100.246727
1577.000000	100.249056
1576.000000	100.252489
1575.000000	100.256227
1574.000000	100.259106
1573.000000	100.260864
1572.000000	100.261950
1571.000000	100.263470
1570.000000	100.266264
1569.000000	100.269759
1568.000000	100.272662
1567.000000	100.274475
1566.000000	100.275486
1565.000000	100.276256
1564.000000	100.276980
1563.000000	100.277649
1562.000000	100.278612
1561.000000	100.280861
1560.000000	100.287071
1559.000000	100.292830
1558.000000	100.291304
1557.000000	100.287994
1556.000000	100.287904
1555.000000	100.289883
1554.000000	100.292781
1553.000000	100.294954
1552.000000	100.296186
1551.000000	100.296652
1550.000000	100.296445
1549.000000	100.295442
1548.000000	100.294422
1547.000000	100.294707
1546.000000	100.297176
1545.000000	100.300920
1544.000000	100.303400
1543.000000	100.303181
1542.000000	100.301172
1541.000000	100.298355
1540.000000	100.293970
1539.000000	100.288793
1538.000000	100.285578
1537.000000	100.284531
1536.000000	100.284314
1535.000000	100.284064
1534.000000	100.282543
1533.000000	100.278063
1532.000000	100.270608
1531.000000	100.261785
1530.000000	100.252492
1529.000000	100.244134
1528.000000	100.239253
1527.000000	100.239366
1526.000000	100.242789
1525.000000	100.245636
1524.000000	100.245775
1523.000000	100.244737
1522.000000	100.245171
1521.000000	100.246367
1520.000000	100.245049
1519.000000	100.240184
1518.000000	100.233641
1517.000000	100.228038
1516.000000	100.225060
1515.000000	100.224487
1514.000000	100.224867
1513.000000	100.225044
1512.000000	100.224981
1511.000000	100.225130
1510.000000	100.225464
1509.000000	100.225513
1508.000000	100.225753
1507.000000	100.226477
1506.000000	100.227095
1505.000000	100.227595
1504.000000	100.226644
1503.000000	100.223579
1502.000000	100.220038
1501.000000	100.218123
1500.000000	100.219601
1499.000000	100.224898
1498.000000	100.232406
1497.000000	100.238451
1496.000000	100.240990
1495.000000	100.242093
1494.000000	100.243797
1493.000000	100.245339
1492.000000	100.245763
1491.000000	100.246753
1490.000000	100.250676
1489.000000	100.256205
1488.000000	100.259986
1487.000000	100.261308
1486.000000	100.261986
1485.000000	100.263711
1484.000000	100.265816
1483.000000	100.266738
1482.000000	100.266877
1481.000000	100.268057
1480.000000	100.271126
1479.000000	100.275512
1478.000000	100.281418
1477.000000	100.290232
1476.000000	100.302617
1475.000000	100.317825
1474.000000	100.336208
1473.000000	100.359459
1472.000000	100.386421
1471.000000	100.413158
1470.000000	100.436750
1469.000000	100.456311
1468.000000	100.472398
1467.000000	100.486400
1466.000000	100.498661
1465.000000	100.506415
1464.000000	100.506523
1463.000000	100.500955
1462.000000	100.494422
1461.000000	100.489659
1460.000000	100.487529
1459.000000	100.488525
1458.000000	100.492425
1457.000000	100.494552
1456.000000	100.490182
1455.000000	100.481462
1454.000000	100.472417
1453.000000	100.464694
1452.000000	100.459168
1451.000000	100.456235
1450.000000	100.454868
1449.000000	100.451817
1448.000000	100.444460
1447.000000	100.434412
1446.000000	100.426263
1445.000000	100.422282
1444.000000	100.421022
1443.000000	100.420608
1442.000000	100.420727
1441.000000	100.421926
1440.000000	100.423744
1439.000000	100.424298
1438.000000	100.421345
1437.000000	100.413871
1436.000000	100.404531
1435.000000	100.398058
1434.000000	100.395234
1433.000000	100.393079
1432.000000	100.389865
1431.000000	100.386687
1430.000000	100.385067
1429.000000	100.383869
1428.000000	100.380851
1427.000000	100.376028
1426.000000	100.371832
1425.000000	100.370461
1424.000000	100.371507
1423.000000	100.373304
1422.000000	100.375000
1421.000000	100.376283
1420.000000	100.376596
1419.000000	100.375897
1418.000000	100.375813
1417.000000	100.377515
1416.000000	100.379421
1415.000000	100.379286
1414.000000	100.377164
1413.000000	100.375066
1412.000000	100.374637
1411.000000	100.375934
1410.000000	100.378154
1409.000000	100.380395
1408.000000	100.382043
1407.000000	100.382951
1406.000000	100.383848
1405.000000	100.386047
1404.000000	100.389689
1403.000000	100.393346
1402.000000	100.395677
1401.000000	100.397062
1400.000000	100.399335
1399.000000	100.403703
1398.000000	100.409506
1397.000000	100.415290
1396.000000	100.420191
1395.000000	100.423953
1394.000000	100.426981
1393.000000	100.430129
1392.000000	100.433953
1391.000000	100.438993
1390.000000	100.446075
1389.000000	100.455498
1388.000000	100.465500
1387.000000	100.472445
1386.000000	100.474680
1385.000000	100.475005
1384.000000	100.477614
1383.000000	100.484032
1382.000000	100.491929
1381.000000	100.497362
1380.000000	100.498364
1379.000000	100.496196
1378.000000	100.493925
1377.000000	100.493778
1376.000000	100.495397
1375.000000	100.496302
1374.000000	100.494504
1373.000000	100.491025
1372.000000	100.488720
1371.000000	100.488993
1370.000000	100.491061
1369.000000	100.493383
1368.000000	100.494794
1367.000000	100.495094
1366.000000	100.494958
1365.000000	100.495455
1364.000000	100.497165
1363.000000	100.498967
1362.000000	100.498424
1361.000000	100.494585
1360.000000	100.489444
1359.000000	100.486100
1358.000000	100.486142
1357.000000	100.488721
1356.000000	100.491628
1355.000000	100.493281
1354.000000	100.493697
1353.000000	100.493734
1352.000000	100.493922
1351.000000	100.494008
1350.000000	100.493404
1349.000000	100.491883
1348.000000	100.489675
1347.000000	100.487296
1346.000000	100.485366
1345.000000	100.484481
1344.000000	100.484971
1343.000000	100.486774
1342.000000	100.489571
1341.000000	100.492821
1340.000000	100.495506
1339.000000	100.496364
1338.000000	100.494932
1337.000000	100.492161
1336.000000	100.489742
1335.000000	100.488809
1334.000000	100.489256
1333.000000	100.490023
1332.000000	100.490066
1331.000000	100.489229
1330.000000	100.488407
1329.000000	100.488775
1328.000000	100.490497
1327.000000	100.492212
1326.000000	100.492316
1325.000000	100.490895
1324.000000	100.489759
1323.000000	100.490280
1322.000000	100.491746
1321.000000	100.492495
1320.000000	100.492222
1319.000000	100.492233
1318.000000	100.493501
1317.000000	100.495507
1316.000000	100.497320
1315.000000	100.498710
1314.000000	100.499604
1313.000000	100.499365
1312.000000	100.497511
1311.000000	100.494632
1310.000000	100.491793
1309.000000	100.489455
1308.000000	100.487730
1307.000000	100.487266
1306.000000	100.488928
1305.000000	100.492466
1304.000000	100.496126
1303.000000	100.498073
1302.000000	100.498012
1301.000000	100.497193
1300.000000	100.496876
1299.000000	100.496884
1298.000000	100.495846
1297.000000	100.493028
1296.000000	100.489830
1295.000000	100.488882
1294.000000	100.491220
1293.000000	100.494770
1292.000000	100.496240
1291.000000	100.494445
1290.000000	100.491255
1289.000000	100.489307
1288.000000	100.489278
1287.000000	100.489734
1286.000000	100.489181
1285.000000	100.487664
1284.000000	100.486359
1283.000000	100.486091
1282.000000	100.486562
1281.000000	100.486784
1280.000000	100.485860
1279.000000	100.483344
1278.000000	100.479592
1277.000000	100.476113
1276.000000	100.474940
1275.000000	100.476850
1274.000000	100.480531
1273.000000	100.484198
1272.000000	100.487429
1271.000000	100.490304
1270.000000	100.491564
1269.000000	100.489802
1268.000000	100.486539
1267.000000	100.485764
1266.000000	100.489252
1265.000000	100.494146
1264.000000	100.496680
1263.000000	100.496727
1262.000000	100.496831
1261.000000	100.497891
1260.000000	100.498115
1259.000000	100.496146
1258.000000	100.493175
1257.000000	100.491146
1256.000000	100.489890
1255.000000	100.486823
1254.000000	100.479703
1253.000000	100.469807
1252.000000	100.461897
1251.000000	100.459792
1250.000000	100.461864
1249.000000	100.462443
1248.000000	100.458070
1247.000000	100.450544
1246.000000	100.443205
1245.000000	100.436486
1244.000000	100.428991
1243.000000	100.421018
1242.000000	100.414317
1241.000000	100.409188
1240.000000	100.404283
1239.000000	100.398855
1238.000000	100.393023
1237.000000	100.386035
1236.000000	100.376353
1235.000000	100.363754
1234.000000	100.349975
1233.000000	100.337203
1232.000000	100.326866
1231.000000	100.319196
1230.000000	100.312494
1229.000000	100.303466
1228.000000	100.289895
1227.000000	100.272585
1226.000000	100.253533
1225.000000	100.233261
1224.000000	100.211647
1223.000000	100.189983
1222.000000	100.169362
1221.000000	100.147594
1220.000000	100.120690
1219.000000	100.087443
1218.000000	100.050116
1217.000000	100.010742
1216.000000	99.969648
1215.000000	99.927973
1214.000000	99.888304
1213.000000	99.851393
1212.000000	99.814629
1211.000000	99.775172
1210.000000	99.732679
1209.000000	99.687839
1208.000000	99.640398
1207.000000	99.590411
1206.000000	99.540104
1205.000000	99.492763
1204.000000	99.450153
1203.000000	99.411789
1202.000000	99.375889
1201.000000	99.340030
1200.000000	99.301544
1199.000000	99.258809
1198.000000	99.212778
1197.000000	99.166508
1196.000000	99.122258
1195.000000	99.078990
1194.000000	99.033624
1193.000000	98.985204
1192.000000	98.936575
1191.000000	98.890620
1190.000000	98.845893
1189.000000	98.798286
1188.000000	98.746745
1187.000000	98.694679
1186.000000	98.644961
1185.000000	98.595766
1184.000000	98.542627
1183.000000	98.483101
1182.000000	98.418559
1181.000000	98.352835
1180.000000	98.289888
1179.000000	98.231371
1178.000000	98.175461
1177.000000	98.118717
1176.000000	98.058878
1175.000000	97.994914
1174.000000	97.925931
1173.000000	97.852878
1172.000000	97.780373
1171.000000	97.713073
1170.000000	97.650197
1169.000000	97.587281
1168.000000	97.523588
1167.000000	97.463941
1166.000000	97.413363
1165.000000	97.374980
1164.000000	97.353778
1163.000000	97.356020
1162.000000	97.381537
1161.000000	97.420369
1160.000000	97.459589
1159.000000	97.490408
1158.000000	97.507372
1157.000000	97.505745
1156.000000	97.483415
1155.000000	97.442915
1154.000000	97.388921
1153.000000	97.325571
1152.000000	97.257577
1151.000000	97.190311
1150.000000	97.125765
1149.000000	97.061154
1148.000000	96.994297
1147.000000	96.927798
1146.000000	96.865606
1145.000000	96.808371
1144.000000	96.754625
1143.000000	96.703393
1142.000000	96.652861
1141.000000	96.599438
1140.000000	96.541139
1139.000000	96.479819
1138.000000	96.418118
1137.000000	96.356844
1136.000000	96.297020
1135.000000	96.240918
1134.000000	96.188585
1133.000000	96.136716
1132.000000	96.083377
1131.000000	96.030352
1130.000000	95.978348
1129.000000	95.923775
1128.000000	95.863567
1127.000000	95.799973
1126.000000	95.737302
1125.000000	95.676878
1124.000000	95.618473
1123.000000	95.563720
1122.000000	95.514096
1121.000000	95.467246
1120.000000	95.418592
1119.000000	95.365755
1118.000000	95.309654
1117.000000	95.252818
1116.000000	95.198001
1115.000000	95.146389
1114.000000	95.095900
1113.000000	95.043694
1112.000000	94.990973
1111.000000	94.941939
1110.000000	94.897335
1109.000000	94.852970
1108.000000	94.805707
1107.000000	94.756934
1106.000000	94.708926
1105.000000	94.661808
1104.000000	94.615018
1103.000000	94.567371
1102.000000	94.514997
1101.000000	94.454398
1100.000000	94.389005
1099.000000	94.327883
1098.000000	94.276222
1097.000000	94.231661
1096.000000	94.190416
1095.000000	94.151295
1094.000000	94.112432
1093.000000	94.070242
1092.000000	94.024147
1091.000000	93.977932
1090.000000	93.934888
1089.000000	93.895481
1088.000000	93.859826
1087.000000	93.827610
1086.000000	93.795949
1085.000000	93.762582
1084.000000	93.730204
1083.000000	93.702005
1082.000000	93.674962
1081.000000	93.644725
1080.000000	93.614673
1079.000000	93.591078
1078.000000	93.570816
1077.000000	93.544369
1076.000000	93.510506
1075.000000	93.476567
1074.000000	93.443074
1073.000000	93.399663
1072.000000	93.339259
1071.000000	93.265745
1070.000000	93.184734
1069.000000	93.096351
1068.000000	93.000466
1067.000000	92.899411
1066.000000	92.791596
1065.000000	92.671971
1064.000000	92.543011
1063.000000	92.416040
1062.000000	92.297123
1061.000000	92.180914
1060.000000	92.062969
1059.000000	91.947952
1058.000000	91.840382
1057.000000	91.737012
1056.000000	91.634190
1055.000000	91.533158
1054.000000	91.431564
1053.000000	91.319268
1052.000000	91.191244
1051.000000	91.057378
1050.000000	90.930734
1049.000000	90.812699
1048.000000	90.697372
1047.000000	90.582339
1046.000000	90.467580
1045.000000	90.351101
1044.000000	90.231816
1043.000000	90.111143
1042.000000	89.988369
1041.000000	89.860918
1040.000000	89.731766
1039.000000	89.609151
1038.000000	89.496440
1037.000000	89.390174
1036.000000	89.289747
1035.000000	89.199226
1034.000000	89.117245
1033.000000	89.036332
1032.000000	88.956755
1031.000000	88.890303
1030.000000	88.844314
1029.000000	88.810830
1028.000000	88.776946
1027.000000	88.738689
1026.000000	88.700084
1025.000000	88.665897
1024.000000	88.639394
1023.000000	88.620030
1022.000000	88.599759
1021.000000	88.568607
1020.000000	88.526525
1019.000000	88.482716
1018.000000	88.441930
1017.000000	88.399580
1016.000000	88.351717
1015.000000	88.300682
1014.000000	88.248935
1013.000000	88.196290
1012.000000	88.145027
1011.000000	88.098401
1010.000000	88.052490
1009.000000	87.999861
1008.000000	87.943777
1007.000000	87.898170
1006.000000	87.869977
1005.000000	87.851216
1004.000000	87.831842
1003.000000	87.811207
1002.000000	87.793403
1001.000000	87.780555
1000.000000	87.774572
999.000000	87.777086
998.000000	87.783953
997.000000	87.787264
996.000000	87.785292
995.000000	87.783163
994.000000	87.782893
993.000000	87.781582
992.000000	87.780415
991.000000	87.785600
990.000000	87.798272
989.000000	87.812725
988.000000	87.826559
987.000000	87.843451
986.000000	87.864329
985.000000	87.885692
984.000000	87.908774
983.000000	87.940876
982.000000	87.985270
981.000000	88.038465
980.000000	88.098794
979.000000	88.168493
978.000000	88.246147
977.000000	88.326994
976.000000	88.412084
975.000000	88.507099
974.000000	88.610920
973.000000	88.716026
972.000000	88.821947
971.000000	88.937105
970.000000	89.064485
969.000000	89.196108
968.000000	89.325104
967.000000	89.453424
966.000000	89.583792
965.000000	89.713309
964.000000	89.839194
963.000000	89.962677
962.000000	90.083442
961.000000	90.198081
960.000000	90.307991
959.000000	90.421550
958.000000	90.544006
957.000000	90.670653
956.000000	90.793031
955.000000	90.906565
954.000000	91.010294
953.000000	91.105278
952.000000	91.195583
951.000000	91.285206
950.000000	91.371863
949.000000	91.448879
948.000000	91.514641
947.000000	91.575026
946.000000	91.635538
945.000000	91.696238
944.000000	91.755064
943.000000	91.810359
942.000000	91.859531
941.000000	91.901323
940.000000	91.940256
939.000000	91.982955
938.000000	92.029251
937.000000	92.072560
936.000000	92.109156
935.000000	92.141319
934.000000	92.172376
933.000000	92.205630
932.000000	92.247060
931.000000	92.300097
930.000000	92.357155
929.000000	92.405480
928.000000	92.442932
927.000000	92.479419
926.000000	92.520950
925.000000	92.561561
924.000000	92.594462
923.000000	92.622523
922.000000	92.652709
921.000000	92.686465
920.000000	92.720263
919.000000	92.750929
918.000000	92.777166
917.000000	92.800028
916.000000	92.823908
915.000000	92.852764
914.000000	92.884741
913.000000	92.915974
912.000000	92.949861
911.000000	92.995465
910.000000	93.055644
909.000000	93.124179
908.000000	93.196601
907.000000	93.276841
906.000000	93.370695
905.000000	93.479067
904.000000	93.599329
903.000000	93.726839
902.000000	93.853680
901.000000	93.972852
900.000000	94.085805
899.000000	94.200046
898.000000	94.318560
897.000000	94.438108
896.000000	94.558273
895.000000	94.683621
894.000000	94.814020
893.000000	94.940329
892.000000	95.053967
891.000000	95.155485
890.000000	95.250382
889.000000	95.341618
888.000000	95.430205
887.000000	95.519013
886.000000	95.611313
885.000000	95.707091
884.000000	95.803253
883.000000	95.896083
882.000000	95.982856
881.000000	96.063539
880.000000	96.141545
879.000000	96.220531
878.000000	96.300658
877.000000	96.380754
876.000000	96.462816
875.000000	96.549915
874.000000	96.640564
873.000000	96.730397
872.000000	96.819410
871.000000	96.912657
870.000000	97.013400
869.000000	97.119497
868.000000	97.226142
867.000000	97.328190
866.000000	97.420994
865.000000	97.503905
864.000000	97.582874
863.000000	97.665274
862.000000	97.751841
861.000000	97.837414
860.000000	97.918912
859.000000	97.997783
858.000000	98.074658
857.000000	98.146660
856.000000	98.211271
855.000000	98.269392
854.000000	98.324077
853.000000	98.379502
852.000000	98.440684
851.000000	98.509393
850.000000	98.579342
849.000000	98.639790
848.000000	98.685661
847.000000	98.721259
846.000000	98.753350
845.000000	98.783592
844.000000	98.808764
843.000000	98.825508
842.000000	98.833651
841.000000	98.836833
840.000000	98.839869
839.000000	98.843025
838.000000	98.839246
837.000000	98.820356
836.000000	98.786351
835.000000	98.745782
834.000000	98.707107
833.000000	98.673080
832.000000	98.643479
831.000000	98.618402
830.000000	98.597357
829.000000	98.579699
828.000000	98.568430
827.000000	98.569971
826.000000	98.587879
825.000000	98.619643
824.000000	98.660348
823.000000	98.704783
822.000000	98.745215
821.000000	98.773424
820.000000	98.787703
819.000000	98.793833
818.000000	98.797119
817.000000	98.795463
816.000000	98.780520
815.000000	98.743153
814.000000	98.677717
813.000000	98.583790
812.000000	98.464275
811.000000	98.319432
810.000000	98.142786
809.000000	97.926210
808.000000	97.669654
807.000000	97.382614
806.000000	97.075368
805.000000	96.753120
804.000000	96.420865
803.000000	96.089899
802.000000	95.777246
801.000000	95.502224
800.000000	95.283330
799.000000	95.130577
798.000000	95.037795
797.000000	94.988844
796.000000	94.973554
795.000000	94.991324
794.000000	95.038977
793.000000	95.103980
792.000000	95.171609
791.000000	95.231336
790.000000	95.275228
789.000000	95.298066
788.000000	95.300637
787.000000	95.285322
786.000000	95.246902
785.000000	95.175736
784.000000	95.072580
783.000000	94.952878
782.000000	94.833923
781.000000	94.725386
780.000000	94.634600
779.000000	94.571072
778.000000	94.540197
777.000000	94.539931
776.000000	94.568014
775.000000	94.624951
774.000000	94.705918
773.000000	94.798289
772.000000	94.892919
771.000000	94.991243
770.000000	95.095966
769.000000	95.200678
768.000000	95.294181
767.000000	95.370630
766.000000	95.430938
765.000000	95.478603
764.000000	95.519012
763.000000	95.559456
762.000000	95.604816
761.000000	95.654302
760.000000	95.704297
759.000000	95.751941
758.000000	95.795394
757.000000	95.835381
756.000000	95.878249
755.000000	95.932198
754.000000	95.997280
753.000000	96.063376
752.000000	96.121130
751.000000	96.171227
750.000000	96.220222
749.000000	96.271480
748.000000	96.324256
747.000000	96.378845
746.000000	96.438240
745.000000	96.505323
744.000000	96.580938
743.000000	96.664341
742.000000	96.754420
741.000000	96.850672
740.000000	96.952407
739.000000	97.055987
738.000000	97.154979
737.000000	97.246224
736.000000	97.334138
735.000000	97.424700
734.000000	97.515643
733.000000	97.596714
732.000000	97.659679
731.000000	97.704590
730.000000	97.736818
729.000000	97.762638
728.000000	97.788957
727.000000	97.822552
726.000000	97.865668
725.000000	97.914024
724.000000	97.961430
723.000000	98.005804
722.000000	98.050325
721.000000	98.099739
720.000000	98.155495
719.000000	98.213528
718.000000	98.267692
717.000000	98.316180
716.000000	98.362763
715.000000	98.410705
714.000000	98.458006
713.000000	98.500110
712.000000	98.533812
711.000000	98.556040
710.000000	98.563650
709.000000	98.559336
708.000000	98.553626
707.000000	98.553698
706.000000	98.552140
705.000000	98.534099
704.000000	98.493969
703.000000	98.436669
702.000000	98.362932
701.000000	98.262504
700.000000	98.124541
699.000000	97.949439
698.000000	97.750712
697.000000	97.553277
696.000000	97.390583
695.000000	97.292344
694.000000	97.268353
693.000000	97.306378
692.000000	97.385692
691.000000	97.488987
690.000000	97.602804
689.000000	97.715311
688.000000	97.819072
687.000000	97.913385
686.000000	98.001640
685.000000	98.088149
684.000000	98.176310
683.000000	98.264687
682.000000	98.344773
681.000000	98.408037
680.000000	98.456532
679.000000	98.502127
678.000000	98.554234
677.000000	98.612048
676.000000	98.669169
675.000000	98.720564
674.000000	98.765216
673.000000	98.807540
672.000000	98.855945
671.000000	98.913270
670.000000	98.968373
669.000000	99.002203
668.000000	99.012598
667.000000	99.032715
666.000000	99.085011
665.000000	99.148094
664.000000	99.199557
663.000000	99.240517
662.000000	99.283404
661.000000	99.330144
660.000000	99.366777
659.000000	99.381426
658.000000	99.378044
657.000000	99.369801
656.000000	99.365534
655.000000	99.366738
654.000000	99.372673
653.000000	99.385317
652.000000	99.408789
651.000000	99.440564
650.000000	99.465326
649.000000	99.467789
648.000000	99.454121
647.000000	99.451566
646.000000	99.481146
645.000000	99.537437
644.000000	99.598643
643.000000	99.646854
642.000000	99.676793
641.000000	99.695862
640.000000	99.720113
639.000000	99.761198
638.000000	99.811308
637.000000	99.851674
636.000000	99.879882
635.000000	99.913583
634.000000	99.962212
633.000000	100.011745
632.000000	100.047276
631.000000	100.073747
630.000000	100.101599
629.000000	100.126887
628.000000	100.141450
627.000000	100.152932
626.000000	100.178816
625.000000	100.225426
624.000000	100.286233
623.000000	100.353992
622.000000	100.420214
621.000000	100.471337
620.000000	100.501732
619.000000	100.525355
618.000000	100.557792
617.000000	100.588894
616.000000	100.593066
615.000000	100.565213
614.000000	100.527675
613.000000	100.498809
612.000000	100.473031
611.000000	100.437310
610.000000	100.392186
609.000000	100.351617
608.000000	100.331251
607.000000	100.337031
606.000000	100.354692
605.000000	100.355507
604.000000	100.322273
603.000000	100.264555
602.000000	100.205728
601.000000	100.164892
600.000000	100.158469
599.000000	100.200643
598.000000	100.283449
597.000000	100.370116
596.000000	100.425813
595.000000	100.445058
594.000000	100.437827
593.000000	100.403103
592.000000	100.342017
591.000000	100.290809
590.000000	100.302423
589.000000	100.386320
588.000000	100.492468
587.000000	100.557269
586.000000	100.553586
585.000000	100.495869
584.000000	100.415161
583.000000	100.344323
582.000000	100.309859
581.000000	100.317879
580.000000	100.357248
579.000000	100.418294
578.000000	100.494551
577.000000	100.566875
576.000000	100.604499
575.000000	100.594206
574.000000	100.557283
573.000000	100.516848
572.000000	100.464154
571.000000	100.379570
570.000000	100.272981
569.000000	100.182503
568.000000	100.137264
567.000000	100.136577
566.000000	100.158552
565.000000	100.177532
564.000000	100.168127
563.000000	100.103655
562.000000	99.977065
561.000000	99.823188
560.000000	99.694410
559.000000	99.602101
558.000000	99.497802
557.000000	99.339175
556.000000	99.158818
555.000000	99.028302
554.000000	98.958955
553.000000	98.896445
552.000000	98.822193
551.000000	98.794741
550.000000	98.852396
