PE IR       SUBTECH     SPECTRUM    ASCII       PEDS        4.00        
   -1
BH1 8-2 6 0_1.asc
24/05/15
13:24:37.00
24/05/15
13:26:31.00
Administrator
?品 073 用? Administrator 日期 Wednesday, May 15 2024
550.000000
#HDR
-1
-1
#GR
cm-1
%T
1.0
0.0
4000.000000
-1.000000
3451
8
101.371426
74.979570
#DATA
4000.000000	100.837553
3999.000000	100.833795
3998.000000	100.830039
3997.000000	100.827541
3996.000000	100.826908
3995.000000	100.827689
3994.000000	100.828485
3993.000000	100.828090
3992.000000	100.826196
3991.000000	100.823337
3990.000000	100.820463
3989.000000	100.818468
3988.000000	100.817835
3987.000000	100.818328
3986.000000	100.819121
3985.000000	100.819534
3984.000000	100.819735
3983.000000	100.820525
3982.000000	100.822312
3981.000000	100.824409
3980.000000	100.825526
3979.000000	100.825015
3978.000000	100.823452
3977.000000	100.821996
3976.000000	100.821236
3975.000000	100.820821
3974.000000	100.820115
3973.000000	100.818940
3972.000000	100.817598
3971.000000	100.816455
3970.000000	100.815683
3969.000000	100.815219
3968.000000	100.814617
3967.000000	100.813041
3966.000000	100.809851
3965.000000	100.805545
3964.000000	100.801987
3963.000000	100.801256
3962.000000	100.804077
3961.000000	100.809164
3960.000000	100.814002
3959.000000	100.816660
3958.000000	100.816841
3957.000000	100.815568
3956.000000	100.814090
3955.000000	100.812864
3954.000000	100.811516
3953.000000	100.809579
3952.000000	100.807050
3951.000000	100.804229
3950.000000	100.801211
3949.000000	100.797774
3948.000000	100.793938
3947.000000	100.790527
3946.000000	100.788892
3945.000000	100.789953
3944.000000	100.793449
3943.000000	100.798018
3942.000000	100.802144
3941.000000	100.805187
3940.000000	100.807459
3939.000000	100.809404
3938.000000	100.810866
3937.000000	100.811202
3936.000000	100.810116
3935.000000	100.808276
3934.000000	100.806894
3933.000000	100.806488
3932.000000	100.806243
3931.000000	100.805021
3930.000000	100.802850
3929.000000	100.800922
3928.000000	100.800140
3927.000000	100.800134
3926.000000	100.799832
3925.000000	100.798761
3924.000000	100.797459
3923.000000	100.796555
3922.000000	100.795961
3921.000000	100.795274
3920.000000	100.794681
3919.000000	100.795054
3918.000000	100.796963
3917.000000	100.799754
3916.000000	100.801831
3915.000000	100.802044
3914.000000	100.800585
3913.000000	100.798744
3912.000000	100.797966
3911.000000	100.798853
3910.000000	100.800978
3909.000000	100.803297
3908.000000	100.804953
3907.000000	100.805688
3906.000000	100.805746
3905.000000	100.805578
3904.000000	100.805575
3903.000000	100.805908
3902.000000	100.806552
3901.000000	100.807375
3900.000000	100.808146
3899.000000	100.808633
3898.000000	100.808812
3897.000000	100.808856
3896.000000	100.809004
3895.000000	100.809417
3894.000000	100.810120
3893.000000	100.810932
3892.000000	100.811549
3891.000000	100.811878
3890.000000	100.812139
3889.000000	100.812570
3888.000000	100.813222
3887.000000	100.813919
3886.000000	100.814300
3885.000000	100.814131
3884.000000	100.813520
3883.000000	100.812874
3882.000000	100.812736
3881.000000	100.813321
3880.000000	100.814201
3879.000000	100.814782
3878.000000	100.814925
3877.000000	100.815038
3876.000000	100.815565
3875.000000	100.816288
3874.000000	100.816409
3873.000000	100.815582
3872.000000	100.814775
3871.000000	100.815777
3870.000000	100.819339
3869.000000	100.823839
3868.000000	100.826437
3867.000000	100.825704
3866.000000	100.822666
3865.000000	100.819594
3864.000000	100.817803
3863.000000	100.816611
3862.000000	100.814477
3861.000000	100.811024
3860.000000	100.807700
3859.000000	100.806816
3858.000000	100.810368
3857.000000	100.819087
3856.000000	100.831290
3855.000000	100.841925
3854.000000	100.845823
3853.000000	100.843752
3852.000000	100.840413
3851.000000	100.836900
3850.000000	100.832142
3849.000000	100.826093
3848.000000	100.819061
3847.000000	100.811599
3846.000000	100.805046
3845.000000	100.801104
3844.000000	100.800659
3843.000000	100.803141
3842.000000	100.807180
3841.000000	100.811705
3840.000000	100.815989
3839.000000	100.819072
3838.000000	100.820277
3837.000000	100.820255
3836.000000	100.820439
3835.000000	100.821119
3834.000000	100.820653
3833.000000	100.816758
3832.000000	100.808940
3831.000000	100.799730
3830.000000	100.792706
3829.000000	100.789546
3828.000000	100.789578
3827.000000	100.791463
3826.000000	100.794795
3825.000000	100.800036
3824.000000	100.807147
3823.000000	100.814787
3822.000000	100.821145
3821.000000	100.825757
3820.000000	100.829149
3819.000000	100.830777
3818.000000	100.829936
3817.000000	100.827463
3816.000000	100.825219
3815.000000	100.824138
3814.000000	100.822721
3813.000000	100.818977
3812.000000	100.813354
3811.000000	100.808489
3810.000000	100.806760
3809.000000	100.808725
3808.000000	100.813048
3807.000000	100.817294
3806.000000	100.819507
3805.000000	100.819154
3804.000000	100.817129
3803.000000	100.815174
3802.000000	100.814620
3801.000000	100.815444
3800.000000	100.816268
3799.000000	100.815667
3798.000000	100.813935
3797.000000	100.812758
3796.000000	100.813228
3795.000000	100.814872
3794.000000	100.816317
3793.000000	100.816588
3792.000000	100.815709
3791.000000	100.814337
3790.000000	100.813068
3789.000000	100.811966
3788.000000	100.810677
3787.000000	100.809146
3786.000000	100.808179
3785.000000	100.808897
3784.000000	100.811611
3783.000000	100.815333
3782.000000	100.818378
3781.000000	100.819652
3780.000000	100.819320
3779.000000	100.818350
3778.000000	100.817362
3777.000000	100.816257
3776.000000	100.815045
3775.000000	100.814338
3774.000000	100.814724
3773.000000	100.815921
3772.000000	100.816872
3771.000000	100.816940
3770.000000	100.816961
3769.000000	100.818419
3768.000000	100.821502
3767.000000	100.824736
3766.000000	100.826575
3765.000000	100.826753
3764.000000	100.826012
3763.000000	100.824933
3762.000000	100.823456
3761.000000	100.821434
3760.000000	100.819309
3759.000000	100.818075
3758.000000	100.818284
3757.000000	100.819442
3756.000000	100.820815
3755.000000	100.822286
3754.000000	100.824350
3753.000000	100.827529
3752.000000	100.831833
3751.000000	100.836783
3750.000000	100.841389
3749.000000	100.843953
3748.000000	100.842776
3747.000000	100.837194
3746.000000	100.827888
3745.000000	100.817664
3744.000000	100.811263
3743.000000	100.810234
3742.000000	100.811027
3741.000000	100.810786
3740.000000	100.809947
3739.000000	100.809160
3738.000000	100.808161
3737.000000	100.806859
3736.000000	100.805753
3735.000000	100.804846
3734.000000	100.803195
3733.000000	100.800347
3732.000000	100.797113
3731.000000	100.794574
3730.000000	100.792969
3729.000000	100.791809
3728.000000	100.790382
3727.000000	100.788005
3726.000000	100.784718
3725.000000	100.781649
3724.000000	100.780009
3723.000000	100.779770
3722.000000	100.779518
3721.000000	100.777659
3720.000000	100.773695
3719.000000	100.768363
3718.000000	100.762731
3717.000000	100.757300
3716.000000	100.752246
3715.000000	100.748082
3714.000000	100.745797
3713.000000	100.745940
3712.000000	100.747405
3711.000000	100.747439
3710.000000	100.743351
3709.000000	100.734695
3708.000000	100.723721
3707.000000	100.713816
3706.000000	100.707694
3705.000000	100.706207
3704.000000	100.707712
3703.000000	100.708509
3702.000000	100.705148
3701.000000	100.697056
3700.000000	100.686455
3699.000000	100.675946
3698.000000	100.666633
3697.000000	100.657746
3696.000000	100.647941
3695.000000	100.637520
3694.000000	100.629600
3693.000000	100.628631
3692.000000	100.636588
3691.000000	100.649822
3690.000000	100.660644
3689.000000	100.664176
3688.000000	100.662137
3687.000000	100.658000
3686.000000	100.652144
3685.000000	100.643514
3684.000000	100.631925
3683.000000	100.618062
3682.000000	100.603286
3681.000000	100.589362
3680.000000	100.577587
3679.000000	100.567473
3678.000000	100.556474
3677.000000	100.541800
3676.000000	100.524450
3675.000000	100.510023
3674.000000	100.500636
3673.000000	100.491710
3672.000000	100.478866
3671.000000	100.460572
3670.000000	100.437823
3669.000000	100.414024
3668.000000	100.390810
3667.000000	100.367177
3666.000000	100.343459
3665.000000	100.322072
3664.000000	100.305016
3663.000000	100.291887
3662.000000	100.280013
3661.000000	100.266535
3660.000000	100.250481
3659.000000	100.232801
3658.000000	100.215194
3657.000000	100.199405
3656.000000	100.186828
3655.000000	100.177551
3654.000000	100.170441
3653.000000	100.164831
3652.000000	100.159788
3651.000000	100.151622
3650.000000	100.136243
3649.000000	100.115335
3648.000000	100.095002
3647.000000	100.077961
3646.000000	100.061755
3645.000000	100.043379
3644.000000	100.022888
3643.000000	100.002733
3642.000000	99.984600
3641.000000	99.967598
3640.000000	99.950178
3639.000000	99.932995
3638.000000	99.918350
3637.000000	99.906693
3636.000000	99.895446
3635.000000	99.882060
3634.000000	99.867230
3633.000000	99.854121
3632.000000	99.845458
3631.000000	99.842716
3630.000000	99.846403
3629.000000	99.854726
3628.000000	99.861298
3627.000000	99.857786
3626.000000	99.842173
3625.000000	99.821439
3624.000000	99.805358
3623.000000	99.800047
3622.000000	99.806362
3621.000000	99.821086
3620.000000	99.838545
3619.000000	99.853012
3618.000000	99.861785
3617.000000	99.866533
3616.000000	99.872126
3615.000000	99.883849
3614.000000	99.904227
3613.000000	99.931136
3612.000000	99.958684
3611.000000	99.980491
3610.000000	99.993098
3609.000000	99.997883
3608.000000	100.000293
3607.000000	100.005499
3606.000000	100.014342
3605.000000	100.023994
3604.000000	100.031534
3603.000000	100.036331
3602.000000	100.039725
3601.000000	100.042827
3600.000000	100.045067
3599.000000	100.045437
3598.000000	100.044666
3597.000000	100.045273
3596.000000	100.049427
3595.000000	100.056988
3594.000000	100.065814
3593.000000	100.073577
3592.000000	100.078818
3591.000000	100.081014
3590.000000	100.080889
3589.000000	100.081208
3588.000000	100.085967
3587.000000	100.096175
3586.000000	100.107173
3585.000000	100.112918
3584.000000	100.111554
3583.000000	100.105797
3582.000000	100.099556
3581.000000	100.094500
3580.000000	100.089784
3579.000000	100.084351
3578.000000	100.078579
3577.000000	100.073734
3576.000000	100.070682
3575.000000	100.069524
3574.000000	100.069763
3573.000000	100.070333
3572.000000	100.069740
3571.000000	100.066827
3570.000000	100.061554
3569.000000	100.054958
3568.000000	100.048438
3567.000000	100.042918
3566.000000	100.038397
3565.000000	100.034312
3564.000000	100.030253
3563.000000	100.026336
3562.000000	100.023403
3561.000000	100.022602
3560.000000	100.024207
3559.000000	100.026958
3558.000000	100.028908
3557.000000	100.029010
3556.000000	100.027762
3555.000000	100.026482
3554.000000	100.026090
3553.000000	100.026401
3552.000000	100.026208
3551.000000	100.023925
3550.000000	100.018399
3549.000000	100.009687
3548.000000	99.999603
3547.000000	99.991373
3546.000000	99.987872
3545.000000	99.989604
3544.000000	99.994350
3543.000000	99.998776
3542.000000	100.000547
3541.000000	99.999291
3540.000000	99.996267
3539.000000	99.993352
3538.000000	99.991923
3537.000000	99.992355
3536.000000	99.994402
3535.000000	99.997967
3534.000000	100.003130
3533.000000	100.009273
3532.000000	100.014553
3531.000000	100.016856
3530.000000	100.015589
3529.000000	100.012512
3528.000000	100.010564
3527.000000	100.011592
3526.000000	100.015193
3525.000000	100.019411
3524.000000	100.022254
3523.000000	100.022949
3522.000000	100.022236
3521.000000	100.021770
3520.000000	100.022943
3519.000000	100.025872
3518.000000	100.029267
3517.000000	100.031427
3516.000000	100.031725
3515.000000	100.031213
3514.000000	100.031762
3513.000000	100.034436
3512.000000	100.038603
3511.000000	100.042509
3510.000000	100.044761
3509.000000	100.045323
3508.000000	100.045202
3507.000000	100.045468
3506.000000	100.046635
3505.000000	100.048731
3504.000000	100.051433
3503.000000	100.054067
3502.000000	100.055868
3501.000000	100.056516
3500.000000	100.056249
3499.000000	100.055394
3498.000000	100.053974
3497.000000	100.052032
3496.000000	100.050238
3495.000000	100.049695
3494.000000	100.050800
3493.000000	100.052616
3492.000000	100.053652
3491.000000	100.053275
3490.000000	100.052100
3489.000000	100.051068
3488.000000	100.050571
3487.000000	100.050631
3486.000000	100.051415
3485.000000	100.053065
3484.000000	100.055181
3483.000000	100.056988
3482.000000	100.058064
3481.000000	100.058519
3480.000000	100.058507
3479.000000	100.057928
3478.000000	100.056781
3477.000000	100.055557
3476.000000	100.055056
3475.000000	100.055756
3474.000000	100.057335
3473.000000	100.058756
3472.000000	100.058912
3471.000000	100.057390
3470.000000	100.054739
3469.000000	100.051904
3468.000000	100.049437
3467.000000	100.047416
3466.000000	100.045978
3465.000000	100.045478
3464.000000	100.045900
3463.000000	100.046284
3462.000000	100.045234
3461.000000	100.042179
3460.000000	100.038001
3459.000000	100.034249
3458.000000	100.031613
3457.000000	100.029396
3456.000000	100.026646
3455.000000	100.023683
3454.000000	100.022144
3453.000000	100.023301
3452.000000	100.026689
3451.000000	100.030355
3450.000000	100.032449
3449.000000	100.032310
3448.000000	100.030228
3447.000000	100.026851
3446.000000	100.022886
3445.000000	100.018958
3444.000000	100.015443
3443.000000	100.012487
3442.000000	100.010294
3441.000000	100.009163
3440.000000	100.009080
3439.000000	100.009374
3438.000000	100.009036
3437.000000	100.007463
3436.000000	100.004851
3435.000000	100.001967
3434.000000	99.999585
3433.000000	99.998040
3432.000000	99.997227
3431.000000	99.997109
3430.000000	99.998169
3429.000000	100.001022
3428.000000	100.005393
3427.000000	100.009675
3426.000000	100.011933
3425.000000	100.011316
3424.000000	100.008390
3423.000000	100.004510
3422.000000	100.001024
3421.000000	99.998787
3420.000000	99.997920
3419.000000	99.997776
3418.000000	99.997402
3417.000000	99.996388
3416.000000	99.995160
3415.000000	99.994376
3414.000000	99.994168
3413.000000	99.994087
3412.000000	99.993676
3411.000000	99.992971
3410.000000	99.992487
3409.000000	99.992777
3408.000000	99.993926
3407.000000	99.995341
3406.000000	99.996128
3405.000000	99.995904
3404.000000	99.995168
3403.000000	99.994778
3402.000000	99.995063
3401.000000	99.995580
3400.000000	99.995764
3399.000000	99.995666
3398.000000	99.995947
3397.000000	99.997209
3396.000000	99.999381
3395.000000	100.001681
3394.000000	100.003127
3393.000000	100.003241
3392.000000	100.002373
3391.000000	100.001478
3390.000000	100.001431
3389.000000	100.002461
3388.000000	100.004166
3387.000000	100.005922
3386.000000	100.007259
3385.000000	100.007955
3384.000000	100.008011
3383.000000	100.007712
3382.000000	100.007567
3381.000000	100.007958
3380.000000	100.008881
3379.000000	100.010168
3378.000000	100.011838
3377.000000	100.013911
3376.000000	100.015859
3375.000000	100.016675
3374.000000	100.015835
3373.000000	100.014061
3372.000000	100.012844
3371.000000	100.013083
3370.000000	100.014397
3369.000000	100.015695
3368.000000	100.016214
3367.000000	100.016064
3366.000000	100.016038
3365.000000	100.017080
3364.000000	100.019802
3363.000000	100.024269
3362.000000	100.030006
3361.000000	100.036110
3360.000000	100.041416
3359.000000	100.044881
3358.000000	100.046133
3357.000000	100.045669
3356.000000	100.044362
3355.000000	100.042727
3354.000000	100.040900
3353.000000	100.039274
3352.000000	100.038737
3351.000000	100.040110
3350.000000	100.043504
3349.000000	100.048256
3348.000000	100.053215
3347.000000	100.057080
3346.000000	100.058931
3345.000000	100.058787
3344.000000	100.057593
3343.000000	100.056395
3342.000000	100.055579
3341.000000	100.055179
3340.000000	100.055638
3339.000000	100.057618
3338.000000	100.060978
3337.000000	100.064443
3336.000000	100.066717
3335.000000	100.067789
3334.000000	100.068877
3333.000000	100.071217
3332.000000	100.075050
3331.000000	100.079527
3330.000000	100.083372
3329.000000	100.085775
3328.000000	100.086927
3327.000000	100.087854
3326.000000	100.089505
3325.000000	100.091909
3324.000000	100.094318
3323.000000	100.096195
3322.000000	100.097882
3321.000000	100.100155
3320.000000	100.103268
3319.000000	100.106643
3318.000000	100.109493
3317.000000	100.111466
3316.000000	100.112569
3315.000000	100.112757
3314.000000	100.112020
3313.000000	100.110903
3312.000000	100.110524
3311.000000	100.111560
3310.000000	100.113280
3309.000000	100.114047
3308.000000	100.113124
3307.000000	100.111758
3306.000000	100.112062
3305.000000	100.114923
3304.000000	100.119287
3303.000000	100.123329
3302.000000	100.126192
3301.000000	100.128307
3300.000000	100.130350
3299.000000	100.132400
3298.000000	100.134197
3297.000000	100.135865
3296.000000	100.137995
3295.000000	100.140882
3294.000000	100.143837
3293.000000	100.145576
3292.000000	100.145417
3291.000000	100.144002
3290.000000	100.142741
3289.000000	100.142553
3288.000000	100.143232
3287.000000	100.143954
3286.000000	100.144023
3285.000000	100.143096
3284.000000	100.141123
3283.000000	100.138627
3282.000000	100.136934
3281.000000	100.137414
3280.000000	100.140227
3279.000000	100.143976
3278.000000	100.146858
3277.000000	100.148274
3276.000000	100.148936
3275.000000	100.149655
3274.000000	100.150467
3273.000000	100.150995
3272.000000	100.151255
3271.000000	100.151787
3270.000000	100.153133
3269.000000	100.155415
3268.000000	100.158302
3267.000000	100.161153
3266.000000	100.163243
3265.000000	100.164213
3264.000000	100.164390
3263.000000	100.164605
3262.000000	100.165516
3261.000000	100.167090
3260.000000	100.168797
3259.000000	100.170166
3258.000000	100.171167
3257.000000	100.172082
3256.000000	100.173176
3255.000000	100.174494
3254.000000	100.175912
3253.000000	100.177302
3252.000000	100.178642
3251.000000	100.179989
3250.000000	100.181385
3249.000000	100.182824
3248.000000	100.184280
3247.000000	100.185737
3246.000000	100.187194
3245.000000	100.188657
3244.000000	100.190121
3243.000000	100.191584
3242.000000	100.193041
3241.000000	100.194488
3240.000000	100.195925
3239.000000	100.197352
3238.000000	100.198772
3237.000000	100.200185
3236.000000	100.201596
3235.000000	100.203006
3234.000000	100.204419
3233.000000	100.205834
3232.000000	100.207250
3231.000000	100.208669
3230.000000	100.210092
3229.000000	100.211514
3228.000000	100.212923
3227.000000	100.214307
3226.000000	100.215658
3225.000000	100.216984
3224.000000	100.218302
3223.000000	100.219624
3222.000000	100.220951
3221.000000	100.222275
3220.000000	100.223588
3219.000000	100.224891
3218.000000	100.226186
3217.000000	100.227477
3216.000000	100.228764
3215.000000	100.230042
3214.000000	100.231307
3213.000000	100.232555
3212.000000	100.233789
3211.000000	100.235019
3210.000000	100.236255
3209.000000	100.237502
3208.000000	100.238757
3207.000000	100.240020
3206.000000	100.241290
3205.000000	100.242566
3204.000000	100.243843
3203.000000	100.245115
3202.000000	100.246376
3201.000000	100.247657
3200.000000	100.249002
3199.000000	100.250403
3198.000000	100.251782
3197.000000	100.253080
3196.000000	100.254345
3195.000000	100.255685
3194.000000	100.257147
3193.000000	100.258649
3192.000000	100.260056
3191.000000	100.261336
3190.000000	100.262646
3189.000000	100.264213
3188.000000	100.266071
3187.000000	100.267927
3186.000000	100.269369
3185.000000	100.270268
3184.000000	100.270951
3183.000000	100.271903
3182.000000	100.273256
3181.000000	100.274747
3180.000000	100.276124
3179.000000	100.277444
3178.000000	100.278881
3177.000000	100.280408
3176.000000	100.281867
3175.000000	100.283252
3174.000000	100.284696
3173.000000	100.286173
3172.000000	100.287500
3171.000000	100.288770
3170.000000	100.290588
3169.000000	100.293547
3168.000000	100.297437
3167.000000	100.301141
3166.000000	100.303608
3165.000000	100.304666
3164.000000	100.304829
3163.000000	100.304582
3162.000000	100.304114
3161.000000	100.303753
3160.000000	100.304090
3159.000000	100.305400
3158.000000	100.307212
3157.000000	100.308801
3156.000000	100.310081
3155.000000	100.311632
3154.000000	100.313790
3153.000000	100.316045
3152.000000	100.317567
3151.000000	100.318150
3150.000000	100.318380
3149.000000	100.318894
3148.000000	100.319662
3147.000000	100.320151
3146.000000	100.320067
3145.000000	100.319803
3144.000000	100.320172
3143.000000	100.321757
3142.000000	100.324579
3141.000000	100.328222
3140.000000	100.332013
3139.000000	100.335143
3138.000000	100.336960
3137.000000	100.337449
3136.000000	100.337451
3135.000000	100.338073
3134.000000	100.339667
3133.000000	100.341596
3132.000000	100.343040
3131.000000	100.343866
3130.000000	100.344572
3129.000000	100.345577
3128.000000	100.346808
3127.000000	100.347909
3126.000000	100.348618
3125.000000	100.348973
3124.000000	100.349293
3123.000000	100.350000
3122.000000	100.351342
3121.000000	100.353319
3120.000000	100.355844
3119.000000	100.358780
3118.000000	100.361784
3117.000000	100.364379
3116.000000	100.366401
3115.000000	100.368218
3114.000000	100.370259
3113.000000	100.372539
3112.000000	100.374892
3111.000000	100.377400
3110.000000	100.380093
3109.000000	100.382336
3108.000000	100.383213
3107.000000	100.382647
3106.000000	100.381785
3105.000000	100.382047
3104.000000	100.383787
3103.000000	100.386180
3102.000000	100.388052
3101.000000	100.388916
3100.000000	100.389271
3099.000000	100.390049
3098.000000	100.391680
3097.000000	100.393712
3096.000000	100.395375
3095.000000	100.396469
3094.000000	100.397407
3093.000000	100.398443
3092.000000	100.399333
3091.000000	100.399985
3090.000000	100.400978
3089.000000	100.402921
3088.000000	100.405619
3087.000000	100.408299
3086.000000	100.410569
3085.000000	100.412695
3084.000000	100.414914
3083.000000	100.416963
3082.000000	100.418462
3081.000000	100.419399
3080.000000	100.420043
3079.000000	100.420644
3078.000000	100.421376
3077.000000	100.422409
3076.000000	100.423785
3075.000000	100.425260
3074.000000	100.426485
3073.000000	100.427394
3072.000000	100.428295
3071.000000	100.429560
3070.000000	100.431264
3069.000000	100.433116
3068.000000	100.434670
3067.000000	100.435637
3066.000000	100.436053
3065.000000	100.436245
3064.000000	100.436645
3063.000000	100.437572
3062.000000	100.439178
3061.000000	100.441371
3060.000000	100.443772
3059.000000	100.445895
3058.000000	100.447525
3057.000000	100.448920
3056.000000	100.450449
3055.000000	100.452071
3054.000000	100.453343
3053.000000	100.453980
3052.000000	100.454210
3051.000000	100.454479
3050.000000	100.454982
3049.000000	100.455693
3048.000000	100.456767
3047.000000	100.458589
3046.000000	100.461178
3045.000000	100.463707
3044.000000	100.465045
3043.000000	100.464855
3042.000000	100.463941
3041.000000	100.463379
3040.000000	100.463421
3039.000000	100.463498
3038.000000	100.463123
3037.000000	100.462597
3036.000000	100.462867
3035.000000	100.464850
3034.000000	100.468724
3033.000000	100.473561
3032.000000	100.477798
3031.000000	100.480431
3030.000000	100.481641
3029.000000	100.482157
3028.000000	100.482362
3027.000000	100.482417
3026.000000	100.482912
3025.000000	100.484579
3024.000000	100.487306
3023.000000	100.490095
3022.000000	100.492191
3021.000000	100.493616
3020.000000	100.494399
3019.000000	100.494175
3018.000000	100.493276
3017.000000	100.493537
3016.000000	100.496732
3015.000000	100.502266
3014.000000	100.507422
3013.000000	100.510137
3012.000000	100.510873
3011.000000	100.511553
3010.000000	100.513256
3009.000000	100.515269
3008.000000	100.516237
3007.000000	100.516136
3006.000000	100.516979
3005.000000	100.521039
3004.000000	100.528210
3003.000000	100.535738
3002.000000	100.541016
3001.000000	100.543997
3000.000000	100.546273
2999.000000	100.548622
2998.000000	100.550572
2997.000000	100.551990
2996.000000	100.553905
2995.000000	100.557583
2994.000000	100.563510
2993.000000	100.571207
2992.000000	100.579309
2991.000000	100.585900
2990.000000	100.589802
2989.000000	100.591930
2988.000000	100.594801
2987.000000	100.600370
2986.000000	100.608669
2985.000000	100.618493
2984.000000	100.628721
2983.000000	100.638722
2982.000000	100.648087
2981.000000	100.656478
2980.000000	100.663669
2979.000000	100.669762
2978.000000	100.675511
2977.000000	100.681888
2976.000000	100.688454
2975.000000	100.692375
2974.000000	100.690295
2973.000000	100.681669
2972.000000	100.669723
2971.000000	100.658650
2970.000000	100.650154
2969.000000	100.643008
2968.000000	100.635330
2967.000000	100.626819
2966.000000	100.619115
2965.000000	100.614182
2964.000000	100.611965
2963.000000	100.609659
2962.000000	100.604101
2961.000000	100.595239
2960.000000	100.586522
2959.000000	100.581515
2958.000000	100.580914
2957.000000	100.583230
2956.000000	100.587104
2955.000000	100.591861
2954.000000	100.596533
2953.000000	100.599711
2952.000000	100.600367
2951.000000	100.598075
2950.000000	100.592893
2949.000000	100.586052
2948.000000	100.580296
2947.000000	100.577929
2946.000000	100.578359
2945.000000	100.578942
2944.000000	100.578674
2943.000000	100.579634
2942.000000	100.583857
2941.000000	100.589959
2940.000000	100.594132
2939.000000	100.594048
2938.000000	100.590653
2937.000000	100.586438
2936.000000	100.583103
2935.000000	100.580992
2934.000000	100.579864
2933.000000	100.579624
2932.000000	100.580609
2931.000000	100.583331
2930.000000	100.587693
2929.000000	100.592456
2928.000000	100.595877
2927.000000	100.597052
2926.000000	100.596453
2925.000000	100.595253
2924.000000	100.594568
2923.000000	100.595445
2922.000000	100.598863
2921.000000	100.604984
2920.000000	100.612407
2919.000000	100.618702
2918.000000	100.622175
2917.000000	100.623056
2916.000000	100.623062
2915.000000	100.623896
2914.000000	100.625962
2913.000000	100.628307
2912.000000	100.629593
2911.000000	100.629225
2910.000000	100.627914
2909.000000	100.627363
2908.000000	100.629149
2907.000000	100.633519
2906.000000	100.639070
2905.000000	100.643820
2904.000000	100.646934
2903.000000	100.649257
2902.000000	100.652036
2901.000000	100.655353
2900.000000	100.658178
2899.000000	100.659763
2898.000000	100.660418
2897.000000	100.660903
2896.000000	100.661656
2895.000000	100.662809
2894.000000	100.664368
2893.000000	100.665960
2892.000000	100.666787
2891.000000	100.666368
2890.000000	100.665298
2889.000000	100.664962
2888.000000	100.666491
2887.000000	100.669997
2886.000000	100.674469
2885.000000	100.678261
2884.000000	100.680181
2883.000000	100.680466
2882.000000	100.680414
2881.000000	100.680772
2880.000000	100.681019
2879.000000	100.680631
2878.000000	100.680233
2877.000000	100.680528
2876.000000	100.680571
2875.000000	100.678489
2874.000000	100.673926
2873.000000	100.668789
2872.000000	100.665391
2871.000000	100.664616
2870.000000	100.666130
2869.000000	100.669169
2868.000000	100.672526
2867.000000	100.674663
2866.000000	100.674771
2865.000000	100.673432
2864.000000	100.671824
2863.000000	100.670482
2862.000000	100.669314
2861.000000	100.668368
2860.000000	100.667769
2859.000000	100.667234
2858.000000	100.666431
2857.000000	100.665638
2856.000000	100.665431
2855.000000	100.665820
2854.000000	100.666252
2853.000000	100.666514
2852.000000	100.667110
2851.000000	100.668557
2850.000000	100.670652
2849.000000	100.672566
2848.000000	100.673515
2847.000000	100.673314
2846.000000	100.672435
2845.000000	100.671661
2844.000000	100.671490
2843.000000	100.671842
2842.000000	100.672369
2841.000000	100.672913
2840.000000	100.673537
2839.000000	100.674235
2838.000000	100.674824
2837.000000	100.675165
2836.000000	100.675332
2835.000000	100.675516
2834.000000	100.675833
2833.000000	100.676308
2832.000000	100.676978
2831.000000	100.677902
2830.000000	100.679043
2829.000000	100.680202
2828.000000	100.681124
2827.000000	100.681675
2826.000000	100.681872
2825.000000	100.681836
2824.000000	100.681755
2823.000000	100.681854
2822.000000	100.682280
2821.000000	100.682999
2820.000000	100.683826
2819.000000	100.684532
2818.000000	100.685031
2817.000000	100.685406
2816.000000	100.685825
2815.000000	100.686396
2814.000000	100.687109
2813.000000	100.687873
2812.000000	100.688587
2811.000000	100.689206
2810.000000	100.689752
2809.000000	100.690281
2808.000000	100.690838
2807.000000	100.691423
2806.000000	100.692033
2805.000000	100.692674
2804.000000	100.693343
2803.000000	100.694021
2802.000000	100.694714
2801.000000	100.695500
2800.000000	100.696464
2799.000000	100.697604
2798.000000	100.698792
2797.000000	100.699827
2796.000000	100.700548
2795.000000	100.700908
2794.000000	100.701032
2793.000000	100.701168
2792.000000	100.701522
2791.000000	100.702131
2790.000000	100.702882
2789.000000	100.703664
2788.000000	100.704466
2787.000000	100.705342
2786.000000	100.706322
2785.000000	100.707341
2784.000000	100.708223
2783.000000	100.708765
2782.000000	100.708910
2781.000000	100.708902
2780.000000	100.709165
2779.000000	100.709946
2778.000000	100.711161
2777.000000	100.712558
2776.000000	100.713976
2775.000000	100.715333
2774.000000	100.716541
2773.000000	100.717554
2772.000000	100.718387
2771.000000	100.719059
2770.000000	100.719560
2769.000000	100.719936
2768.000000	100.720360
2767.000000	100.720998
2766.000000	100.721843
2765.000000	100.722755
2764.000000	100.723595
2763.000000	100.724338
2762.000000	100.725044
2761.000000	100.725760
2760.000000	100.726490
2759.000000	100.727217
2758.000000	100.727935
2757.000000	100.728649
2756.000000	100.729360
2755.000000	100.730065
2754.000000	100.730757
2753.000000	100.731430
2752.000000	100.732078
2751.000000	100.732703
2750.000000	100.733311
2749.000000	100.733906
2748.000000	100.734491
2747.000000	100.735061
2746.000000	100.735615
2745.000000	100.736155
2744.000000	100.736693
2743.000000	100.737237
2742.000000	100.737791
2741.000000	100.738351
2740.000000	100.738908
2739.000000	100.739449
2738.000000	100.739966
2737.000000	100.740456
2736.000000	100.740925
2735.000000	100.741381
2734.000000	100.741826
2733.000000	100.742259
2732.000000	100.742676
2731.000000	100.743079
2730.000000	100.743470
2729.000000	100.743854
2728.000000	100.744235
2727.000000	100.744612
2726.000000	100.744986
2725.000000	100.745351
2724.000000	100.745706
2723.000000	100.746052
2722.000000	100.746396
2721.000000	100.746742
2720.000000	100.747090
2719.000000	100.747436
2718.000000	100.747779
2717.000000	100.748120
2716.000000	100.748452
2715.000000	100.748744
2714.000000	100.748946
2713.000000	100.749023
2712.000000	100.749032
2711.000000	100.749113
2710.000000	100.749364
2709.000000	100.749770
2708.000000	100.750198
2707.000000	100.750520
2706.000000	100.750734
2705.000000	100.750999
2704.000000	100.751510
2703.000000	100.752287
2702.000000	100.753073
2701.000000	100.753546
2700.000000	100.753601
2699.000000	100.753384
2698.000000	100.753106
2697.000000	100.752855
2696.000000	100.752644
2695.000000	100.752537
2694.000000	100.752689
2693.000000	100.753260
2692.000000	100.754225
2691.000000	100.755235
2690.000000	100.755792
2689.000000	100.755666
2688.000000	100.755156
2687.000000	100.754868
2686.000000	100.755196
2685.000000	100.756112
2684.000000	100.757335
2683.000000	100.758585
2682.000000	100.759662
2681.000000	100.760406
2680.000000	100.760635
2679.000000	100.760130
2678.000000	100.758771
2677.000000	100.756835
2676.000000	100.755037
2675.000000	100.754036
2674.000000	100.753967
2673.000000	100.754570
2672.000000	100.755605
2671.000000	100.756856
2670.000000	100.757770
2669.000000	100.757608
2668.000000	100.756211
2667.000000	100.754454
2666.000000	100.753612
2665.000000	100.754276
2664.000000	100.755969
2663.000000	100.757641
2662.000000	100.758586
2661.000000	100.759036
2660.000000	100.759958
2659.000000	100.762074
2658.000000	100.764856
2657.000000	100.766727
2656.000000	100.766646
2655.000000	100.765294
2654.000000	100.764474
2653.000000	100.765146
2652.000000	100.766458
2651.000000	100.766922
2650.000000	100.766082
2649.000000	100.764712
2648.000000	100.763672
2647.000000	100.763039
2646.000000	100.762294
2645.000000	100.760960
2644.000000	100.759006
2643.000000	100.756959
2642.000000	100.755614
2641.000000	100.755331
2640.000000	100.755660
2639.000000	100.755950
2638.000000	100.756313
2637.000000	100.757370
2636.000000	100.758956
2635.000000	100.759787
2634.000000	100.758941
2633.000000	100.757110
2632.000000	100.755850
2631.000000	100.755808
2630.000000	100.756448
2629.000000	100.757287
2628.000000	100.758564
2627.000000	100.760464
2626.000000	100.762379
2625.000000	100.763410
2624.000000	100.763277
2623.000000	100.762389
2622.000000	100.761427
2621.000000	100.761018
2620.000000	100.761415
2619.000000	100.762187
2618.000000	100.762464
2617.000000	100.761861
2616.000000	100.760937
2615.000000	100.760466
2614.000000	100.760468
2613.000000	100.760403
2612.000000	100.760088
2611.000000	100.759932
2610.000000	100.760217
2609.000000	100.760640
2608.000000	100.760763
2607.000000	100.760593
2606.000000	100.760495
2605.000000	100.760758
2604.000000	100.761395
2603.000000	100.762283
2602.000000	100.763328
2601.000000	100.764454
2600.000000	100.765558
2599.000000	100.766503
2598.000000	100.767132
2597.000000	100.767311
2596.000000	100.767030
2595.000000	100.766510
2594.000000	100.766182
2593.000000	100.766424
2592.000000	100.767256
2591.000000	100.768266
2590.000000	100.768943
2589.000000	100.769139
2588.000000	100.769069
2587.000000	100.768965
2586.000000	100.768830
2585.000000	100.768592
2584.000000	100.768311
2583.000000	100.768143
2582.000000	100.768178
2581.000000	100.768382
2580.000000	100.768664
2579.000000	100.768913
2578.000000	100.769037
2577.000000	100.769016
2576.000000	100.768908
2575.000000	100.768791
2574.000000	100.768720
2573.000000	100.768743
2572.000000	100.768884
2571.000000	100.769108
2570.000000	100.769336
2569.000000	100.769531
2568.000000	100.769715
2567.000000	100.769875
2566.000000	100.769918
2565.000000	100.769777
2564.000000	100.769507
2563.000000	100.769291
2562.000000	100.769283
2561.000000	100.769496
2560.000000	100.769839
2559.000000	100.770184
2558.000000	100.770450
2557.000000	100.770602
2556.000000	100.770633
2555.000000	100.770559
2554.000000	100.770414
2553.000000	100.770256
2552.000000	100.770180
2551.000000	100.770272
2550.000000	100.770539
2549.000000	100.770886
2548.000000	100.771191
2547.000000	100.771385
2546.000000	100.771468
2545.000000	100.771490
2544.000000	100.771501
2543.000000	100.771511
2542.000000	100.771483
2541.000000	100.771435
2540.000000	100.771501
2539.000000	100.771811
2538.000000	100.772305
2537.000000	100.772756
2536.000000	100.773068
2535.000000	100.773421
2534.000000	100.774007
2533.000000	100.774708
2532.000000	100.775166
2531.000000	100.775159
2530.000000	100.774754
2529.000000	100.774194
2528.000000	100.773748
2527.000000	100.773633
2526.000000	100.773915
2525.000000	100.774433
2524.000000	100.774911
2523.000000	100.775231
2522.000000	100.775527
2521.000000	100.776031
2520.000000	100.776813
2519.000000	100.777613
2518.000000	100.777934
2517.000000	100.777492
2516.000000	100.776535
2515.000000	100.775718
2514.000000	100.775481
2513.000000	100.775700
2512.000000	100.776043
2511.000000	100.776427
2510.000000	100.776927
2509.000000	100.777408
2508.000000	100.777621
2507.000000	100.777640
2506.000000	100.777908
2505.000000	100.778736
2504.000000	100.779965
2503.000000	100.781136
2502.000000	100.781929
2501.000000	100.782370
2500.000000	100.782677
2499.000000	100.783023
2498.000000	100.783407
2497.000000	100.783741
2496.000000	100.783983
2495.000000	100.784138
2494.000000	100.784217
2493.000000	100.784261
2492.000000	100.784378
2491.000000	100.784667
2490.000000	100.785106
2489.000000	100.785574
2488.000000	100.785981
2487.000000	100.786343
2486.000000	100.786724
2485.000000	100.787142
2484.000000	100.787572
2483.000000	100.787982
2482.000000	100.788356
2481.000000	100.788699
2480.000000	100.789051
2479.000000	100.789465
2478.000000	100.789953
2477.000000	100.790445
2476.000000	100.790840
2475.000000	100.791100
2474.000000	100.791274
2473.000000	100.791461
2472.000000	100.791726
2471.000000	100.792080
2470.000000	100.792515
2469.000000	100.793017
2468.000000	100.793550
2467.000000	100.794032
2466.000000	100.794387
2465.000000	100.794586
2464.000000	100.794664
2463.000000	100.794699
2462.000000	100.794784
2461.000000	100.794993
2460.000000	100.795356
2459.000000	100.795852
2458.000000	100.796426
2457.000000	100.797000
2456.000000	100.797482
2455.000000	100.797807
2454.000000	100.797989
2453.000000	100.798131
2452.000000	100.798352
2451.000000	100.798689
2450.000000	100.799096
2449.000000	100.799513
2448.000000	100.799930
2447.000000	100.800381
2446.000000	100.800899
2445.000000	100.801464
2444.000000	100.802003
2443.000000	100.802419
2442.000000	100.802661
2441.000000	100.802766
2440.000000	100.802839
2439.000000	100.802970
2438.000000	100.803164
2437.000000	100.803348
2436.000000	100.803457
2435.000000	100.803519
2434.000000	100.803654
2433.000000	100.803985
2432.000000	100.804509
2431.000000	100.805077
2430.000000	100.805540
2429.000000	100.805871
2428.000000	100.806161
2427.000000	100.806513
2426.000000	100.806953
2425.000000	100.807429
2424.000000	100.807882
2423.000000	100.808292
2422.000000	100.808669
2421.000000	100.809035
2420.000000	100.809410
2419.000000	100.809806
2418.000000	100.810221
2417.000000	100.810641
2416.000000	100.811054
2415.000000	100.811447
2414.000000	100.811820
2413.000000	100.812185
2412.000000	100.812560
2411.000000	100.812954
2410.000000	100.813362
2409.000000	100.813770
2408.000000	100.814166
2407.000000	100.814547
2406.000000	100.814918
2405.000000	100.815289
2404.000000	100.815671
2403.000000	100.816071
2402.000000	100.816494
2401.000000	100.816938
2400.000000	100.817398
2399.000000	100.817869
2398.000000	100.818344
2397.000000	100.818820
2396.000000	100.819294
2395.000000	100.819764
2394.000000	100.820226
2393.000000	100.820679
2392.000000	100.821121
2391.000000	100.821555
2390.000000	100.821978
2389.000000	100.822390
2388.000000	100.822786
2387.000000	100.823163
2386.000000	100.823526
2385.000000	100.823880
2384.000000	100.824234
2383.000000	100.824591
2382.000000	100.824948
2381.000000	100.825302
2380.000000	100.825647
2379.000000	100.825979
2378.000000	100.826291
2377.000000	100.826581
2376.000000	100.826853
2375.000000	100.827113
2374.000000	100.827370
2373.000000	100.827628
2372.000000	100.827893
2371.000000	100.828165
2370.000000	100.828437
2369.000000	100.828696
2368.000000	100.828932
2367.000000	100.829144
2366.000000	100.829342
2365.000000	100.829533
2364.000000	100.829718
2363.000000	100.829894
2362.000000	100.830055
2361.000000	100.830183
2360.000000	100.830274
2359.000000	100.830309
2358.000000	100.830243
2357.000000	100.830072
2356.000000	100.829899
2355.000000	100.829850
2354.000000	100.829952
2353.000000	100.830135
2352.000000	100.830307
2351.000000	100.830454
2350.000000	100.830595
2349.000000	100.830703
2348.000000	100.830767
2347.000000	100.830745
2346.000000	100.830697
2345.000000	100.830746
2344.000000	100.831031
2343.000000	100.831480
2342.000000	100.831616
2341.000000	100.831150
2340.000000	100.830284
2339.000000	100.829630
2338.000000	100.829431
2337.000000	100.829454
2336.000000	100.829463
2335.000000	100.829765
2334.000000	100.830654
2333.000000	100.831928
2332.000000	100.832786
2331.000000	100.832933
2330.000000	100.832746
2329.000000	100.832539
2328.000000	100.832104
2327.000000	100.830784
2326.000000	100.828628
2325.000000	100.826305
2324.000000	100.824675
2323.000000	100.824124
2322.000000	100.824426
2321.000000	100.825229
2320.000000	100.826033
2319.000000	100.826557
2318.000000	100.826613
2317.000000	100.826460
2316.000000	100.826403
2315.000000	100.826542
2314.000000	100.826640
2313.000000	100.826544
2312.000000	100.826395
2311.000000	100.826439
2310.000000	100.826729
2309.000000	100.827033
2308.000000	100.827044
2307.000000	100.826576
2306.000000	100.825726
2305.000000	100.824870
2304.000000	100.824420
2303.000000	100.824493
2302.000000	100.824825
2301.000000	100.825018
2300.000000	100.824788
2299.000000	100.823994
2298.000000	100.822692
2297.000000	100.821254
2296.000000	100.820258
2295.000000	100.819935
2294.000000	100.819918
2293.000000	100.819564
2292.000000	100.818676
2291.000000	100.817661
2290.000000	100.817048
2289.000000	100.816935
2288.000000	100.817039
2287.000000	100.817041
2286.000000	100.816815
2285.000000	100.816365
2284.000000	100.815737
2283.000000	100.815041
2282.000000	100.814416
2281.000000	100.813900
2280.000000	100.813356
2279.000000	100.812599
2278.000000	100.811551
2277.000000	100.810312
2276.000000	100.809087
2275.000000	100.808068
2274.000000	100.807337
2273.000000	100.806856
2272.000000	100.806512
2271.000000	100.806204
2270.000000	100.805913
2269.000000	100.805621
2268.000000	100.805244
2267.000000	100.804659
2266.000000	100.803811
2265.000000	100.802802
2264.000000	100.801848
2263.000000	100.801160
2262.000000	100.800820
2261.000000	100.800699
2260.000000	100.800490
2259.000000	100.799960
2258.000000	100.799168
2257.000000	100.798419
2256.000000	100.797906
2255.000000	100.797497
2254.000000	100.796937
2253.000000	100.796210
2252.000000	100.795518
2251.000000	100.794983
2250.000000	100.794614
2249.000000	100.794469
2248.000000	100.794568
2247.000000	100.794656
2246.000000	100.794370
2245.000000	100.793724
2244.000000	100.793160
2243.000000	100.793007
2242.000000	100.793142
2241.000000	100.793257
2240.000000	100.793233
2239.000000	100.793123
2238.000000	100.792996
2237.000000	100.792949
2236.000000	100.793072
2235.000000	100.793265
2234.000000	100.793275
2233.000000	100.793046
2232.000000	100.792728
2231.000000	100.792195
2230.000000	100.790969
2229.000000	100.788992
2228.000000	100.787217
2227.000000	100.786757
2226.000000	100.787697
2225.000000	100.789072
2224.000000	100.789936
2223.000000	100.790194
2222.000000	100.790202
2221.000000	100.790277
2220.000000	100.790712
2219.000000	100.791729
2218.000000	100.793115
2217.000000	100.794219
2216.000000	100.794581
2215.000000	100.794333
2214.000000	100.793857
2213.000000	100.793373
2212.000000	100.793051
2211.000000	100.793104
2210.000000	100.793475
2209.000000	100.793698
2208.000000	100.793373
2207.000000	100.792599
2206.000000	100.791796
2205.000000	100.791253
2204.000000	100.791022
2203.000000	100.791089
2202.000000	100.791400
2201.000000	100.791759
2200.000000	100.791904
2199.000000	100.791717
2198.000000	100.791368
2197.000000	100.791255
2196.000000	100.791674
2195.000000	100.792508
2194.000000	100.793277
2193.000000	100.793690
2192.000000	100.794028
2191.000000	100.794737
2190.000000	100.795719
2189.000000	100.796350
2188.000000	100.796270
2187.000000	100.795775
2186.000000	100.795358
2185.000000	100.795105
2184.000000	100.794809
2183.000000	100.794456
2182.000000	100.794275
2181.000000	100.794399
2180.000000	100.794691
2179.000000	100.794950
2178.000000	100.795185
2177.000000	100.795589
2176.000000	100.796285
2175.000000	100.797141
2174.000000	100.797801
2173.000000	100.797964
2172.000000	100.797646
2171.000000	100.797235
2170.000000	100.797219
2169.000000	100.797763
2168.000000	100.798568
2167.000000	100.799138
2166.000000	100.799220
2165.000000	100.798972
2164.000000	100.798805
2163.000000	100.798995
2162.000000	100.799491
2161.000000	100.800120
2160.000000	100.800807
2159.000000	100.801416
2158.000000	100.801532
2157.000000	100.800839
2156.000000	100.799740
2155.000000	100.799205
2154.000000	100.799736
2153.000000	100.800793
2152.000000	100.801390
2151.000000	100.801078
2150.000000	100.800149
2149.000000	100.799166
2148.000000	100.798513
2147.000000	100.798208
2146.000000	100.797939
2145.000000	100.797500
2144.000000	100.797265
2143.000000	100.797817
2142.000000	100.798941
2141.000000	100.799543
2140.000000	100.799009
2139.000000	100.798163
2138.000000	100.798210
2137.000000	100.799105
2136.000000	100.799666
2135.000000	100.799107
2134.000000	100.797764
2133.000000	100.796328
2132.000000	100.795151
2131.000000	100.794515
2130.000000	100.794956
2129.000000	100.796847
2128.000000	100.799978
2127.000000	100.803640
2126.000000	100.806949
2125.000000	100.809240
2124.000000	100.810427
2123.000000	100.811006
2122.000000	100.811442
2121.000000	100.811566
2120.000000	100.810951
2119.000000	100.809824
2118.000000	100.809126
2117.000000	100.809524
2116.000000	100.810703
2115.000000	100.811805
2114.000000	100.812401
2113.000000	100.812860
2112.000000	100.813803
2111.000000	100.815352
2110.000000	100.816917
2109.000000	100.817719
2108.000000	100.817532
2107.000000	100.816886
2106.000000	100.816501
2105.000000	100.816636
2104.000000	100.817061
2103.000000	100.817539
2102.000000	100.818139
2101.000000	100.819043
2100.000000	100.820155
2099.000000	100.821032
2098.000000	100.821316
2097.000000	100.821205
2096.000000	100.821356
2095.000000	100.822131
2094.000000	100.823069
2093.000000	100.823368
2092.000000	100.822932
2091.000000	100.822654
2090.000000	100.823446
2089.000000	100.825313
2088.000000	100.827464
2087.000000	100.829128
2086.000000	100.830094
2085.000000	100.830586
2084.000000	100.830970
2083.000000	100.831496
2082.000000	100.832064
2081.000000	100.832290
2080.000000	100.831977
2079.000000	100.831393
2078.000000	100.830921
2077.000000	100.830650
2076.000000	100.830558
2075.000000	100.830791
2074.000000	100.831477
2073.000000	100.832515
2072.000000	100.833829
2071.000000	100.835455
2070.000000	100.836926
2069.000000	100.837158
2068.000000	100.835700
2067.000000	100.833774
2066.000000	100.833199
2065.000000	100.834218
2064.000000	100.835317
2063.000000	100.835316
2062.000000	100.834642
2061.000000	100.834304
2060.000000	100.834525
2059.000000	100.834906
2058.000000	100.835174
2057.000000	100.835128
2056.000000	100.834466
2055.000000	100.833341
2054.000000	100.832638
2053.000000	100.832900
2052.000000	100.833289
2051.000000	100.832465
2050.000000	100.830342
2049.000000	100.828225
2048.000000	100.827083
2047.000000	100.826336
2046.000000	100.824786
2045.000000	100.822200
2044.000000	100.819516
2043.000000	100.817721
2042.000000	100.816969
2041.000000	100.816767
2040.000000	100.816533
2039.000000	100.815790
2038.000000	100.814157
2037.000000	100.811593
2036.000000	100.808698
2035.000000	100.806448
2034.000000	100.805417
2033.000000	100.805357
2032.000000	100.805518
2031.000000	100.805271
2030.000000	100.804423
2029.000000	100.803159
2028.000000	100.801852
2027.000000	100.800795
2026.000000	100.799907
2025.000000	100.798828
2024.000000	100.797435
2023.000000	100.796141
2022.000000	100.795381
2021.000000	100.794907
2020.000000	100.793963
2019.000000	100.792192
2018.000000	100.790042
2017.000000	100.788213
2016.000000	100.786835
2015.000000	100.785522
2014.000000	100.784081
2013.000000	100.782807
2012.000000	100.781975
2011.000000	100.781390
2010.000000	100.780629
2009.000000	100.779615
2008.000000	100.778691
2007.000000	100.778111
2006.000000	100.777705
2005.000000	100.777111
2004.000000	100.776231
2003.000000	100.775322
2002.000000	100.774649
2001.000000	100.774216
2000.000000	100.773847
1999.000000	100.773431
1998.000000	100.773006
1997.000000	100.772600
1996.000000	100.772101
1995.000000	100.771356
1994.000000	100.770379
1993.000000	100.769439
1992.000000	100.768909
1991.000000	100.768954
1990.000000	100.769358
1989.000000	100.769660
1988.000000	100.769515
1987.000000	100.768938
1986.000000	100.768293
1985.000000	100.768002
1984.000000	100.768199
1983.000000	100.768651
1982.000000	100.768950
1981.000000	100.768814
1980.000000	100.768264
1979.000000	100.767590
1978.000000	100.767192
1977.000000	100.767330
1976.000000	100.767920
1975.000000	100.768511
1974.000000	100.768604
1973.000000	100.768074
1972.000000	100.767306
1971.000000	100.766861
1970.000000	100.767036
1969.000000	100.767792
1968.000000	100.768957
1967.000000	100.770296
1966.000000	100.771419
1965.000000	100.771880
1964.000000	100.771553
1963.000000	100.770820
1962.000000	100.770316
1961.000000	100.770424
1960.000000	100.770957
1959.000000	100.771325
1958.000000	100.771092
1957.000000	100.770459
1956.000000	100.770127
1955.000000	100.770547
1954.000000	100.771383
1953.000000	100.771940
1952.000000	100.771987
1951.000000	100.771881
1950.000000	100.771847
1949.000000	100.771605
1948.000000	100.770733
1947.000000	100.768935
1946.000000	100.766001
1945.000000	100.762066
1944.000000	100.758185
1943.000000	100.756067
1942.000000	100.756591
1941.000000	100.758775
1940.000000	100.760770
1939.000000	100.761728
1938.000000	100.761953
1937.000000	100.761808
1936.000000	100.761182
1935.000000	100.759888
1934.000000	100.758005
1933.000000	100.755676
1932.000000	100.753014
1931.000000	100.750401
1930.000000	100.748377
1929.000000	100.747186
1928.000000	100.746427
1927.000000	100.745333
1926.000000	100.743458
1925.000000	100.741013
1924.000000	100.738998
1923.000000	100.738521
1922.000000	100.739720
1921.000000	100.741231
1920.000000	100.741069
1919.000000	100.738029
1918.000000	100.732681
1917.000000	100.727146
1916.000000	100.723094
1915.000000	100.720396
1914.000000	100.718132
1913.000000	100.715962
1912.000000	100.714346
1911.000000	100.713431
1910.000000	100.712105
1909.000000	100.708965
1908.000000	100.703972
1907.000000	100.698505
1906.000000	100.693799
1905.000000	100.689849
1904.000000	100.686214
1903.000000	100.682700
1902.000000	100.679246
1901.000000	100.675765
1900.000000	100.672291
1899.000000	100.668940
1898.000000	100.665571
1897.000000	100.661925
1896.000000	100.658699
1895.000000	100.657255
1894.000000	100.657565
1893.000000	100.657397
1892.000000	100.654671
1891.000000	100.649919
1890.000000	100.645530
1889.000000	100.642803
1888.000000	100.640873
1887.000000	100.639012
1886.000000	100.638233
1885.000000	100.639411
1884.000000	100.641125
1883.000000	100.640645
1882.000000	100.636791
1881.000000	100.631200
1880.000000	100.626729
1879.000000	100.625013
1878.000000	100.625345
1877.000000	100.625311
1876.000000	100.623166
1875.000000	100.619786
1874.000000	100.617614
1873.000000	100.617925
1872.000000	100.619694
1871.000000	100.621116
1870.000000	100.621604
1869.000000	100.622126
1868.000000	100.623673
1867.000000	100.625828
1866.000000	100.627491
1865.000000	100.628377
1864.000000	100.629316
1863.000000	100.631398
1862.000000	100.634869
1861.000000	100.638798
1860.000000	100.642026
1859.000000	100.644472
1858.000000	100.647301
1857.000000	100.651803
1856.000000	100.658278
1855.000000	100.665676
1854.000000	100.671956
1853.000000	100.675355
1852.000000	100.676074
1851.000000	100.676401
1850.000000	100.678749
1849.000000	100.682939
1848.000000	100.686907
1847.000000	100.689963
1846.000000	100.693897
1845.000000	100.700015
1844.000000	100.706034
1843.000000	100.708194
1842.000000	100.706105
1841.000000	100.702882
1840.000000	100.701591
1839.000000	100.703253
1838.000000	100.706958
1837.000000	100.710733
1836.000000	100.713223
1835.000000	100.714697
1834.000000	100.716650
1833.000000	100.720195
1832.000000	100.724701
1831.000000	100.727826
1830.000000	100.727289
1829.000000	100.723134
1828.000000	100.718016
1827.000000	100.714868
1826.000000	100.715031
1825.000000	100.717688
1824.000000	100.720765
1823.000000	100.723041
1822.000000	100.724750
1821.000000	100.726142
1820.000000	100.726696
1819.000000	100.726110
1818.000000	100.724822
1817.000000	100.723117
1816.000000	100.720753
1815.000000	100.717813
1814.000000	100.715545
1813.000000	100.715406
1812.000000	100.717112
1811.000000	100.718498
1810.000000	100.717455
1809.000000	100.714128
1808.000000	100.710551
1807.000000	100.708383
1806.000000	100.707694
1805.000000	100.707616
1804.000000	100.707649
1803.000000	100.708091
1802.000000	100.709312
1801.000000	100.710928
1800.000000	100.712032
1799.000000	100.712833
1798.000000	100.714526
1797.000000	100.717551
1796.000000	100.720557
1795.000000	100.721836
1794.000000	100.721438
1793.000000	100.721355
1792.000000	100.723164
1791.000000	100.725926
1790.000000	100.727511
1789.000000	100.727376
1788.000000	100.726574
1787.000000	100.726338
1786.000000	100.727250
1785.000000	100.729177
1784.000000	100.731544
1783.000000	100.733787
1782.000000	100.735846
1781.000000	100.737901
1780.000000	100.739809
1779.000000	100.741745
1778.000000	100.744169
1777.000000	100.747243
1776.000000	100.750287
1775.000000	100.752566
1774.000000	100.754513
1773.000000	100.756988
1772.000000	100.759346
1771.000000	100.760029
1770.000000	100.759330
1769.000000	100.759427
1768.000000	100.761983
1767.000000	100.766234
1766.000000	100.769909
1765.000000	100.772232
1764.000000	100.774435
1763.000000	100.777714
1762.000000	100.781265
1761.000000	100.782913
1760.000000	100.781859
1759.000000	100.779767
1758.000000	100.779065
1757.000000	100.781073
1756.000000	100.784839
1755.000000	100.788116
1754.000000	100.789917
1753.000000	100.791017
1752.000000	100.792506
1751.000000	100.794415
1750.000000	100.795502
1749.000000	100.794907
1748.000000	100.793529
1747.000000	100.792617
1746.000000	100.792684
1745.000000	100.793665
1744.000000	100.795299
1743.000000	100.796993
1742.000000	100.797548
1741.000000	100.796243
1740.000000	100.794039
1739.000000	100.792617
1738.000000	100.791817
1737.000000	100.790348
1736.000000	100.787946
1735.000000	100.785847
1734.000000	100.785669
1733.000000	100.786585
1732.000000	100.786572
1731.000000	100.786123
1730.000000	100.785887
1729.000000	100.785031
1728.000000	100.783140
1727.000000	100.781380
1726.000000	100.781105
1725.000000	100.781706
1724.000000	100.781381
1723.000000	100.779710
1722.000000	100.777556
1721.000000	100.775360
1720.000000	100.772395
1719.000000	100.767787
1718.000000	100.762019
1717.000000	100.757009
1716.000000	100.753992
1715.000000	100.752893
1714.000000	100.753255
1713.000000	100.753988
1712.000000	100.753537
1711.000000	100.751026
1710.000000	100.746891
1709.000000	100.742433
1708.000000	100.738757
1707.000000	100.736334
1706.000000	100.735074
1705.000000	100.734207
1704.000000	100.732741
1703.000000	100.730289
1702.000000	100.727102
1701.000000	100.723052
1700.000000	100.718020
1699.000000	100.712229
1698.000000	100.706593
1697.000000	100.702523
1696.000000	100.699860
1695.000000	100.697676
1694.000000	100.695291
1693.000000	100.692889
1692.000000	100.690689
1691.000000	100.687658
1690.000000	100.682995
1689.000000	100.677541
1688.000000	100.672667
1687.000000	100.668691
1686.000000	100.664843
1685.000000	100.659449
1684.000000	100.652364
1683.000000	100.646388
1682.000000	100.642888
1681.000000	100.641029
1680.000000	100.639723
1679.000000	100.637949
1678.000000	100.635577
1677.000000	100.633066
1676.000000	100.630399
1675.000000	100.627135
1674.000000	100.623613
1673.000000	100.621145
1672.000000	100.620798
1671.000000	100.621984
1670.000000	100.622062
1669.000000	100.619220
1668.000000	100.614380
1667.000000	100.609467
1666.000000	100.605417
1665.000000	100.601966
1664.000000	100.598225
1663.000000	100.593716
1662.000000	100.589287
1661.000000	100.586223
1660.000000	100.584219
1659.000000	100.582080
1658.000000	100.579248
1657.000000	100.576457
1656.000000	100.574892
1655.000000	100.575262
1654.000000	100.576036
1653.000000	100.574406
1652.000000	100.570873
1651.000000	100.565879
1650.000000	100.560103
1649.000000	100.553929
1648.000000	100.546451
1647.000000	100.540682
1646.000000	100.540127
1645.000000	100.542365
1644.000000	100.543482
1643.000000	100.543443
1642.000000	100.543197
1641.000000	100.542786
1640.000000	100.541961
1639.000000	100.541232
1638.000000	100.541118
1637.000000	100.540812
1636.000000	100.538517
1635.000000	100.534642
1634.000000	100.531422
1633.000000	100.529278
1632.000000	100.528718
1631.000000	100.529213
1630.000000	100.529344
1629.000000	100.528603
1628.000000	100.527983
1627.000000	100.528713
1626.000000	100.530840
1625.000000	100.533708
1624.000000	100.537035
1623.000000	100.540999
1622.000000	100.545102
1621.000000	100.548308
1620.000000	100.550146
1619.000000	100.550806
1618.000000	100.550093
1617.000000	100.548349
1616.000000	100.547939
1615.000000	100.550882
1614.000000	100.556552
1613.000000	100.562931
1612.000000	100.568197
1611.000000	100.571777
1610.000000	100.574813
1609.000000	100.579003
1608.000000	100.584911
1607.000000	100.591425
1606.000000	100.596882
1605.000000	100.600974
1604.000000	100.605098
1603.000000	100.611011
1602.000000	100.618379
1601.000000	100.625026
1600.000000	100.629998
1599.000000	100.634564
1598.000000	100.639724
1597.000000	100.644322
1596.000000	100.646971
1595.000000	100.648642
1594.000000	100.651712
1593.000000	100.656959
1592.000000	100.662988
1591.000000	100.668165
1590.000000	100.671723
1589.000000	100.673664
1588.000000	100.674985
1587.000000	100.677792
1586.000000	100.683582
1585.000000	100.691303
1584.000000	100.698059
1583.000000	100.702196
1582.000000	100.704715
1581.000000	100.706915
1580.000000	100.708527
1579.000000	100.708856
1578.000000	100.708529
1577.000000	100.709120
1576.000000	100.711709
1575.000000	100.715479
1574.000000	100.718775
1573.000000	100.721025
1572.000000	100.722481
1571.000000	100.724224
1570.000000	100.728175
1569.000000	100.734686
1568.000000	100.740969
1567.000000	100.744717
1566.000000	100.746787
1565.000000	100.749156
1564.000000	100.752501
1563.000000	100.756100
1562.000000	100.759340
1561.000000	100.761977
1560.000000	100.762482
1559.000000	100.759384
1558.000000	100.757327
1557.000000	100.758371
1556.000000	100.759093
1555.000000	100.759127
1554.000000	100.758751
1553.000000	100.758334
1552.000000	100.758196
1551.000000	100.758906
1550.000000	100.760263
1549.000000	100.761252
1548.000000	100.761378
1547.000000	100.761341
1546.000000	100.762383
1545.000000	100.764459
1544.000000	100.766059
1543.000000	100.765987
1542.000000	100.764483
1541.000000	100.762462
1540.000000	100.761150
1539.000000	100.761193
1538.000000	100.761447
1537.000000	100.760859
1536.000000	100.759993
1535.000000	100.759338
1534.000000	100.759469
1533.000000	100.760636
1532.000000	100.761990
1531.000000	100.762736
1530.000000	100.762867
1529.000000	100.762605
1528.000000	100.761993
1527.000000	100.761235
1526.000000	100.760950
1525.000000	100.761570
1524.000000	100.762881
1523.000000	100.764378
1522.000000	100.765464
1521.000000	100.765803
1520.000000	100.765654
1519.000000	100.765537
1518.000000	100.765771
1517.000000	100.766244
1516.000000	100.766587
1515.000000	100.766602
1514.000000	100.766491
1513.000000	100.766627
1512.000000	100.767167
1511.000000	100.767954
1510.000000	100.768713
1509.000000	100.769393
1508.000000	100.770163
1507.000000	100.771083
1506.000000	100.771893
1505.000000	100.772252
1504.000000	100.772169
1503.000000	100.772234
1502.000000	100.772788
1501.000000	100.773782
1500.000000	100.774939
1499.000000	100.775839
1498.000000	100.776114
1497.000000	100.775693
1496.000000	100.775027
1495.000000	100.774620
1494.000000	100.774509
1493.000000	100.774540
1492.000000	100.774537
1491.000000	100.774314
1490.000000	100.773869
1489.000000	100.773657
1488.000000	100.774296
1487.000000	100.775848
1486.000000	100.777558
1485.000000	100.778563
1484.000000	100.778600
1483.000000	100.778280
1482.000000	100.778595
1481.000000	100.779709
1480.000000	100.780793
1479.000000	100.781060
1478.000000	100.780545
1477.000000	100.779639
1476.000000	100.778643
1475.000000	100.777816
1474.000000	100.777656
1473.000000	100.778448
1472.000000	100.779571
1471.000000	100.780235
1470.000000	100.780233
1469.000000	100.779815
1468.000000	100.778917
1467.000000	100.777158
1466.000000	100.774556
1465.000000	100.771808
1464.000000	100.769432
1463.000000	100.767391
1462.000000	100.765582
1461.000000	100.763918
1460.000000	100.761925
1459.000000	100.759271
1458.000000	100.757462
1457.000000	100.759106
1456.000000	100.762846
1455.000000	100.764199
1454.000000	100.763441
1453.000000	100.763755
1452.000000	100.765756
1451.000000	100.767182
1450.000000	100.765317
1449.000000	100.760168
1448.000000	100.755020
1447.000000	100.752966
1446.000000	100.753330
1445.000000	100.753065
1444.000000	100.750119
1443.000000	100.745223
1442.000000	100.740259
1441.000000	100.736051
1440.000000	100.732065
1439.000000	100.728165
1438.000000	100.725316
1437.000000	100.724398
1436.000000	100.724459
1435.000000	100.723566
1434.000000	100.722392
1433.000000	100.723195
1432.000000	100.726241
1431.000000	100.729187
1430.000000	100.729687
1429.000000	100.727869
1428.000000	100.725532
1427.000000	100.723649
1426.000000	100.722700
1425.000000	100.723574
1424.000000	100.726364
1423.000000	100.729613
1422.000000	100.731378
1421.000000	100.731124
1420.000000	100.729455
1419.000000	100.727170
1418.000000	100.725086
1417.000000	100.724326
1416.000000	100.726298
1415.000000	100.731160
1414.000000	100.737146
1413.000000	100.742287
1412.000000	100.746351
1411.000000	100.750241
1410.000000	100.753811
1409.000000	100.755731
1408.000000	100.755783
1407.000000	100.755658
1406.000000	100.757657
1405.000000	100.763089
1404.000000	100.771211
1403.000000	100.779733
1402.000000	100.786122
1401.000000	100.788749
1400.000000	100.787638
1399.000000	100.785551
1398.000000	100.786305
1397.000000	100.790805
1396.000000	100.796772
1395.000000	100.801469
1394.000000	100.804387
1393.000000	100.807044
1392.000000	100.810894
1391.000000	100.816585
1390.000000	100.823640
1389.000000	100.830305
1388.000000	100.834154
1387.000000	100.834079
1386.000000	100.831848
1385.000000	100.830354
1384.000000	100.830786
1383.000000	100.832515
1382.000000	100.834491
1381.000000	100.836200
1380.000000	100.837405
1379.000000	100.837542
1378.000000	100.836371
1377.000000	100.834897
1376.000000	100.834889
1375.000000	100.836920
1374.000000	100.838994
1373.000000	100.838088
1372.000000	100.833669
1371.000000	100.828738
1370.000000	100.827094
1369.000000	100.829571
1368.000000	100.833057
1367.000000	100.834072
1366.000000	100.832499
1365.000000	100.830956
1364.000000	100.831601
1363.000000	100.834298
1362.000000	100.837215
1361.000000	100.838490
1360.000000	100.837253
1359.000000	100.833901
1358.000000	100.830095
1357.000000	100.827994
1356.000000	100.828821
1355.000000	100.832063
1354.000000	100.835953
1353.000000	100.838622
1352.000000	100.839072
1351.000000	100.837507
1350.000000	100.835285
1349.000000	100.834061
1348.000000	100.834339
1347.000000	100.835397
1346.000000	100.836305
1345.000000	100.836739
1344.000000	100.836755
1343.000000	100.836366
1342.000000	100.835458
1341.000000	100.833932
1340.000000	100.831904
1339.000000	100.829905
1338.000000	100.828480
1337.000000	100.827538
1336.000000	100.826746
1335.000000	100.826544
1334.000000	100.828011
1333.000000	100.831289
1332.000000	100.834663
1331.000000	100.836134
1330.000000	100.835815
1329.000000	100.835883
1328.000000	100.838014
1327.000000	100.841580
1326.000000	100.844398
1325.000000	100.844433
1324.000000	100.841034
1323.000000	100.835707
1322.000000	100.831378
1321.000000	100.829827
1320.000000	100.829880
1319.000000	100.829156
1318.000000	100.827418
1317.000000	100.826727
1316.000000	100.828229
1315.000000	100.830720
1314.000000	100.832783
1313.000000	100.834478
1312.000000	100.835904
1311.000000	100.835675
1310.000000	100.832729
1309.000000	100.828914
1308.000000	100.827997
1307.000000	100.831802
1306.000000	100.838319
1305.000000	100.843786
1304.000000	100.845644
1303.000000	100.843437
1302.000000	100.838224
1301.000000	100.831962
1300.000000	100.826777
1299.000000	100.824087
1298.000000	100.824110
1297.000000	100.826055
1296.000000	100.828501
1295.000000	100.829863
1294.000000	100.829265
1293.000000	100.827116
1292.000000	100.824327
1291.000000	100.821026
1290.000000	100.816867
1289.000000	100.812594
1288.000000	100.809832
1287.000000	100.808360
1286.000000	100.804836
1285.000000	100.796109
1284.000000	100.783600
1283.000000	100.772921
1282.000000	100.768493
1281.000000	100.769464
1280.000000	100.771508
1279.000000	100.771762
1278.000000	100.770992
1277.000000	100.771153
1276.000000	100.772102
1275.000000	100.771602
1274.000000	100.768406
1273.000000	100.764305
1272.000000	100.762311
1271.000000	100.763124
1270.000000	100.764465
1269.000000	100.764005
1268.000000	100.761532
1267.000000	100.757708
1266.000000	100.752353
1265.000000	100.745462
1264.000000	100.738888
1263.000000	100.734938
1262.000000	100.733205
1261.000000	100.730403
1260.000000	100.723772
1259.000000	100.713661
1258.000000	100.702620
1257.000000	100.692904
1256.000000	100.684976
1255.000000	100.677312
1254.000000	100.667553
1253.000000	100.654927
1252.000000	100.641574
1251.000000	100.630168
1250.000000	100.619993
1249.000000	100.606901
1248.000000	100.587947
1247.000000	100.565116
1246.000000	100.543753
1245.000000	100.527889
1244.000000	100.517383
1243.000000	100.508560
1242.000000	100.496916
1241.000000	100.480055
1240.000000	100.458952
1239.000000	100.436548
1238.000000	100.415154
1237.000000	100.395430
1236.000000	100.377366
1235.000000	100.360741
1234.000000	100.344093
1233.000000	100.324350
1232.000000	100.298542
1231.000000	100.266034
1230.000000	100.229056
1229.000000	100.190978
1228.000000	100.153463
1227.000000	100.114724
1226.000000	100.070940
1225.000000	100.019807
1224.000000	99.962105
1223.000000	99.899442
1222.000000	99.831775
1221.000000	99.758194
1220.000000	99.678861
1219.000000	99.594642
1218.000000	99.506074
1217.000000	99.414490
1216.000000	99.322514
1215.000000	99.230608
1214.000000	99.134457
1213.000000	99.029425
1212.000000	98.917202
1211.000000	98.804869
1210.000000	98.697624
1209.000000	98.595485
1208.000000	98.496006
1207.000000	98.396034
1206.000000	98.292163
1205.000000	98.184619
1204.000000	98.079682
1203.000000	97.983043
1202.000000	97.891865
1201.000000	97.799006
1200.000000	97.703599
1199.000000	97.610394
1198.000000	97.519488
1197.000000	97.425131
1196.000000	97.325531
1195.000000	97.225621
1194.000000	97.128243
1193.000000	97.030119
1192.000000	96.928905
1191.000000	96.827037
1190.000000	96.725946
1189.000000	96.623389
1188.000000	96.519337
1187.000000	96.417680
1186.000000	96.318874
1185.000000	96.217413
1184.000000	96.109809
1183.000000	95.998726
1182.000000	95.886265
1181.000000	95.769748
1180.000000	95.647431
1179.000000	95.521806
1178.000000	95.393825
1177.000000	95.260731
1176.000000	95.123271
1175.000000	94.987757
1174.000000	94.856282
1173.000000	94.721795
1172.000000	94.578056
1171.000000	94.428273
1170.000000	94.279014
1169.000000	94.131937
1168.000000	93.987092
1167.000000	93.849395
1166.000000	93.727435
1165.000000	93.630853
1164.000000	93.571481
1163.000000	93.559459
1162.000000	93.593024
1161.000000	93.656559
1160.000000	93.730684
1159.000000	93.798613
1158.000000	93.843302
1157.000000	93.849350
1156.000000	93.812813
1155.000000	93.743025
1154.000000	93.651379
1153.000000	93.543679
1152.000000	93.425492
1151.000000	93.306134
1150.000000	93.191546
1149.000000	93.079613
1148.000000	92.967561
1147.000000	92.857833
1146.000000	92.752442
1145.000000	92.648150
1144.000000	92.541810
1143.000000	92.434382
1142.000000	92.325960
1141.000000	92.213467
1140.000000	92.096942
1139.000000	91.981063
1138.000000	91.866626
1137.000000	91.747722
1136.000000	91.621335
1135.000000	91.492474
1134.000000	91.365865
1133.000000	91.239864
1132.000000	91.112561
1131.000000	90.986386
1130.000000	90.862682
1129.000000	90.738982
1128.000000	90.614941
1127.000000	90.493026
1126.000000	90.370494
1125.000000	90.239834
1124.000000	90.100822
1123.000000	89.962994
1122.000000	89.832125
1121.000000	89.703334
1120.000000	89.571455
1119.000000	89.438256
1118.000000	89.305078
1117.000000	89.168801
1116.000000	89.029995
1115.000000	88.895069
1114.000000	88.765684
1113.000000	88.636507
1112.000000	88.507856
1111.000000	88.388794
1110.000000	88.282426
1109.000000	88.179545
1108.000000	88.071992
1107.000000	87.962237
1106.000000	87.855499
1105.000000	87.752549
1104.000000	87.653803
1103.000000	87.560279
1102.000000	87.467711
1101.000000	87.370153
1100.000000	87.270847
1099.000000	87.178201
1098.000000	87.090608
1097.000000	86.998265
1096.000000	86.900592
1095.000000	86.807257
1094.000000	86.720731
1093.000000	86.633288
1092.000000	86.543361
1091.000000	86.459139
1090.000000	86.383162
1089.000000	86.309095
1088.000000	86.236431
1087.000000	86.172273
1086.000000	86.115528
1085.000000	86.056014
1084.000000	85.992892
1083.000000	85.937503
1082.000000	85.893835
1081.000000	85.852217
1080.000000	85.806198
1079.000000	85.759448
1078.000000	85.712455
1077.000000	85.659150
1076.000000	85.600603
1075.000000	85.544729
1074.000000	85.487557
1073.000000	85.411621
1072.000000	85.307710
1071.000000	85.182093
1070.000000	85.038158
1069.000000	84.867279
1068.000000	84.663847
1067.000000	84.434647
1066.000000	84.188688
1065.000000	83.932699
1064.000000	83.680834
1063.000000	83.451550
1062.000000	83.248213
1061.000000	83.058192
1060.000000	82.875442
1059.000000	82.707434
1058.000000	82.556546
1057.000000	82.413018
1056.000000	82.270384
1055.000000	82.129088
1054.000000	81.980787
1053.000000	81.809389
1052.000000	81.613907
1051.000000	81.409729
1050.000000	81.200213
1049.000000	80.970580
1048.000000	80.717693
1047.000000	80.459685
1046.000000	80.207679
1045.000000	79.952627
1044.000000	79.687561
1043.000000	79.419971
1042.000000	79.154362
1041.000000	78.883653
1040.000000	78.607008
1039.000000	78.337630
1038.000000	78.084995
1037.000000	77.847490
1036.000000	77.627998
1035.000000	77.436263
1034.000000	77.269929
1033.000000	77.114197
1032.000000	76.966025
1031.000000	76.837255
1030.000000	76.728635
1029.000000	76.623743
1028.000000	76.515050
1027.000000	76.413450
1026.000000	76.325225
1025.000000	76.242379
1024.000000	76.162286
1023.000000	76.093754
1022.000000	76.036109
1021.000000	75.974619
1020.000000	75.904136
1019.000000	75.835911
1018.000000	75.774618
1017.000000	75.710434
1016.000000	75.639822
1015.000000	75.572173
1014.000000	75.509830
1013.000000	75.443549
1012.000000	75.373534
1011.000000	75.312922
1010.000000	75.264626
1009.000000	75.216569
1008.000000	75.165207
1007.000000	75.121699
1006.000000	75.089605
1005.000000	75.058962
1004.000000	75.027682
1003.000000	75.006408
1002.000000	74.996935
1001.000000	74.988363
1000.000000	74.979570
999.000000	74.982661
998.000000	74.998952
997.000000	75.014685
996.000000	75.025916
995.000000	75.044446
994.000000	75.073427
993.000000	75.101046
992.000000	75.125162
991.000000	75.160855
990.000000	75.215646
989.000000	75.279306
988.000000	75.345988
987.000000	75.425679
986.000000	75.525982
985.000000	75.641992
984.000000	75.770323
983.000000	75.914163
982.000000	76.069844
981.000000	76.228595
980.000000	76.396205
979.000000	76.590622
978.000000	76.815411
977.000000	77.054910
976.000000	77.299052
975.000000	77.553070
974.000000	77.819590
973.000000	78.092712
972.000000	78.373962
971.000000	78.672903
970.000000	78.986627
969.000000	79.298440
968.000000	79.601893
967.000000	79.906860
966.000000	80.217007
965.000000	80.520599
964.000000	80.809604
963.000000	81.090162
962.000000	81.368208
961.000000	81.640908
960.000000	81.907445
959.000000	82.172347
958.000000	82.432868
957.000000	82.678114
956.000000	82.905760
955.000000	83.126090
954.000000	83.345609
953.000000	83.559804
952.000000	83.765252
951.000000	83.965010
950.000000	84.158650
949.000000	84.339898
948.000000	84.507154
947.000000	84.664660
946.000000	84.812310
945.000000	84.946780
944.000000	85.073004
943.000000	85.200734
942.000000	85.328912
941.000000	85.447297
940.000000	85.554141
939.000000	85.658292
938.000000	85.763988
937.000000	85.868654
936.000000	85.975773
935.000000	86.093273
934.000000	86.217469
933.000000	86.335218
932.000000	86.444695
931.000000	86.558524
930.000000	86.683775
929.000000	86.813933
928.000000	86.942828
927.000000	87.070894
926.000000	87.195334
925.000000	87.310029
924.000000	87.418596
923.000000	87.532660
922.000000	87.653657
921.000000	87.770048
920.000000	87.874736
919.000000	87.971223
918.000000	88.061512
917.000000	88.143993
916.000000	88.225835
915.000000	88.320879
914.000000	88.431044
913.000000	88.545056
912.000000	88.659526
911.000000	88.785805
910.000000	88.931718
909.000000	89.092865
908.000000	89.267369
907.000000	89.463466
906.000000	89.685411
905.000000	89.925120
904.000000	90.173683
903.000000	90.429575
902.000000	90.691487
901.000000	90.955032
900.000000	91.219981
899.000000	91.489059
898.000000	91.757200
897.000000	92.014154
896.000000	92.259681
895.000000	92.503622
894.000000	92.748890
893.000000	92.987247
892.000000	93.214323
891.000000	93.435268
890.000000	93.651816
889.000000	93.856914
888.000000	94.047736
887.000000	94.233027
886.000000	94.421751
885.000000	94.612943
884.000000	94.800457
883.000000	94.978511
882.000000	95.139839
881.000000	95.279146
880.000000	95.402939
879.000000	95.527055
878.000000	95.660495
877.000000	95.800442
876.000000	95.944936
875.000000	96.098074
874.000000	96.258926
873.000000	96.417735
872.000000	96.568656
871.000000	96.716167
870.000000	96.864554
869.000000	97.010990
868.000000	97.153712
867.000000	97.297754
866.000000	97.447094
865.000000	97.597954
864.000000	97.744012
863.000000	97.882436
862.000000	98.012643
861.000000	98.135915
860.000000	98.258276
859.000000	98.385846
858.000000	98.514223
857.000000	98.630103
856.000000	98.727256
855.000000	98.814334
854.000000	98.902961
853.000000	98.993816
852.000000	99.078555
851.000000	99.150168
850.000000	99.207319
849.000000	99.252773
848.000000	99.291194
847.000000	99.325245
846.000000	99.351925
845.000000	99.366450
844.000000	99.370057
843.000000	99.367983
842.000000	99.358322
841.000000	99.329946
840.000000	99.274987
839.000000	99.198361
838.000000	99.112170
837.000000	99.025174
836.000000	98.939957
835.000000	98.855583
834.000000	98.770823
833.000000	98.689520
832.000000	98.624201
831.000000	98.588638
830.000000	98.584917
829.000000	98.602957
828.000000	98.632100
827.000000	98.665339
826.000000	98.694225
825.000000	98.712259
824.000000	98.724132
823.000000	98.738162
822.000000	98.748958
821.000000	98.742871
820.000000	98.720393
819.000000	98.695368
818.000000	98.668990
817.000000	98.620307
816.000000	98.528444
815.000000	98.391847
814.000000	98.218329
813.000000	98.006597
812.000000	97.746347
811.000000	97.426854
810.000000	97.034817
809.000000	96.552310
808.000000	95.970832
807.000000	95.305317
806.000000	94.585359
805.000000	93.837419
804.000000	93.085490
803.000000	92.362063
802.000000	91.704605
801.000000	91.143779
800.000000	90.702162
799.000000	90.395295
798.000000	90.224297
797.000000	90.174585
796.000000	90.226968
795.000000	90.360807
794.000000	90.545418
793.000000	90.744223
792.000000	90.933927
791.000000	91.108726
790.000000	91.261907
789.000000	91.374504
788.000000	91.425682
787.000000	91.403604
786.000000	91.303043
785.000000	91.124249
784.000000	90.880626
783.000000	90.599603
782.000000	90.311408
781.000000	90.044525
780.000000	89.832992
779.000000	89.713567
778.000000	89.707658
777.000000	89.813604
776.000000	90.016823
775.000000	90.294727
774.000000	90.612860
773.000000	90.934799
772.000000	91.241862
771.000000	91.532296
770.000000	91.801341
769.000000	92.035955
768.000000	92.229468
767.000000	92.386309
766.000000	92.510447
765.000000	92.604335
764.000000	92.681753
763.000000	92.764620
762.000000	92.860558
761.000000	92.958123
760.000000	93.050418
759.000000	93.148664
758.000000	93.264940
757.000000	93.395795
756.000000	93.531784
755.000000	93.670309
754.000000	93.809613
753.000000	93.941432
752.000000	94.059969
751.000000	94.170287
750.000000	94.280022
749.000000	94.390176
748.000000	94.500297
747.000000	94.614718
746.000000	94.737350
745.000000	94.868056
744.000000	95.009765
743.000000	95.170272
742.000000	95.350599
741.000000	95.539751
740.000000	95.726663
739.000000	95.909187
738.000000	96.086861
737.000000	96.254945
736.000000	96.412036
735.000000	96.563645
734.000000	96.709938
733.000000	96.838084
732.000000	96.935465
731.000000	97.004912
730.000000	97.059675
729.000000	97.108452
728.000000	97.152479
727.000000	97.192725
726.000000	97.232092
725.000000	97.272952
724.000000	97.318475
723.000000	97.375065
722.000000	97.449925
721.000000	97.547362
720.000000	97.666907
719.000000	97.799741
718.000000	97.927696
717.000000	98.034584
716.000000	98.121298
715.000000	98.202829
714.000000	98.287577
713.000000	98.367308
712.000000	98.431189
711.000000	98.479935
710.000000	98.519176
709.000000	98.547259
708.000000	98.558650
707.000000	98.553558
706.000000	98.534656
705.000000	98.497113
704.000000	98.429242
703.000000	98.319827
702.000000	98.157662
701.000000	97.927561
700.000000	97.617089
699.000000	97.231872
698.000000	96.805215
697.000000	96.395647
696.000000	96.072847
695.000000	95.893005
694.000000	95.875838
693.000000	96.000970
692.000000	96.223245
691.000000	96.490915
690.000000	96.758159
689.000000	96.994630
688.000000	97.190702
687.000000	97.351303
686.000000	97.483243
685.000000	97.592429
684.000000	97.689712
683.000000	97.787058
682.000000	97.884929
681.000000	97.972461
680.000000	98.043749
679.000000	98.106384
678.000000	98.170351
677.000000	98.236877
676.000000	98.301978
675.000000	98.363450
674.000000	98.421430
673.000000	98.477509
672.000000	98.535089
671.000000	98.598320
670.000000	98.672304
669.000000	98.766400
668.000000	98.882064
667.000000	98.997066
666.000000	99.083702
665.000000	99.131095
664.000000	99.148863
663.000000	99.160857
662.000000	99.185807
661.000000	99.219755
660.000000	99.244957
659.000000	99.250803
658.000000	99.238743
657.000000	99.215394
656.000000	99.187363
655.000000	99.156600
654.000000	99.117800
653.000000	99.068839
652.000000	99.024066
651.000000	99.001780
650.000000	98.996235
649.000000	98.986155
648.000000	98.977589
647.000000	99.008527
646.000000	99.097111
645.000000	99.213211
644.000000	99.318032
643.000000	99.407063
642.000000	99.495113
641.000000	99.584019
640.000000	99.670122
639.000000	99.764202
638.000000	99.875671
637.000000	99.990830
636.000000	100.091866
635.000000	100.182543
634.000000	100.270267
633.000000	100.338312
632.000000	100.364881
631.000000	100.361575
630.000000	100.367753
629.000000	100.408266
628.000000	100.476898
627.000000	100.555052
626.000000	100.624911
625.000000	100.673589
624.000000	100.706741
623.000000	100.750219
622.000000	100.815588
621.000000	100.875239
620.000000	100.899642
619.000000	100.902502
618.000000	100.911859
617.000000	100.913518
616.000000	100.876195
615.000000	100.821945
614.000000	100.811065
613.000000	100.853719
612.000000	100.892447
611.000000	100.881817
610.000000	100.837011
609.000000	100.786615
608.000000	100.722286
607.000000	100.627617
606.000000	100.525040
605.000000	100.456846
604.000000	100.433185
603.000000	100.425262
602.000000	100.403897
601.000000	100.370418
600.000000	100.348847
599.000000	100.352477
598.000000	100.362382
597.000000	100.349166
596.000000	100.315642
595.000000	100.299655
594.000000	100.323142
593.000000	100.354951
592.000000	100.344662
591.000000	100.283643
590.000000	100.213557
589.000000	100.178591
588.000000	100.192052
587.000000	100.241320
586.000000	100.300235
585.000000	100.346778
584.000000	100.383367
583.000000	100.427548
582.000000	100.474751
581.000000	100.493102
580.000000	100.474454
579.000000	100.472071
578.000000	100.561232
577.000000	100.766689
576.000000	101.036626
575.000000	101.267637
574.000000	101.371426
573.000000	101.346016
572.000000	101.274027
571.000000	101.240362
570.000000	101.240566
569.000000	101.200211
568.000000	101.098270
567.000000	101.010598
566.000000	100.999623
565.000000	101.026656
564.000000	101.028437
563.000000	101.011588
562.000000	101.009600
561.000000	100.997245
560.000000	100.920166
559.000000	100.780287
558.000000	100.629701
557.000000	100.503658
556.000000	100.423537
555.000000	100.429182
554.000000	100.529014
553.000000	100.650786
552.000000	100.704540
551.000000	100.675143
550.000000	100.627363
