PE IR       SUBTECH     SPECTRUM    ASCII       PEDS        4.00        
   -1
BH1 8-3 9 0_1.asc
24/05/15
13:56:42.00
24/05/15
13:57:15.00
Administrator
?品 081 用? Administrator 日期 Wednesday, May 15 2024
550.000000
#HDR
-1
-1
#GR
cm-1
%T
1.0
0.0
4000.000000
-1.000000
3451
8
101.620894
77.287031
#DATA
4000.000000	101.423022
3999.000000	101.421382
3998.000000	101.420405
3997.000000	101.420510
3996.000000	101.421773
3995.000000	101.423739
3994.000000	101.425487
3993.000000	101.426131
3992.000000	101.425331
3991.000000	101.423573
3990.000000	101.421921
3989.000000	101.421248
3988.000000	101.421617
3987.000000	101.422278
3986.000000	101.422275
3985.000000	101.421235
3984.000000	101.419701
3983.000000	101.418695
3982.000000	101.418803
3981.000000	101.419701
3980.000000	101.420558
3979.000000	101.420929
3978.000000	101.421125
3977.000000	101.421732
3976.000000	101.422797
3975.000000	101.423565
3974.000000	101.423056
3973.000000	101.420846
3972.000000	101.417434
3971.000000	101.414079
3970.000000	101.412031
3969.000000	101.411662
3968.000000	101.412202
3967.000000	101.412300
3966.000000	101.411175
3965.000000	101.409302
3964.000000	101.407964
3963.000000	101.408104
3962.000000	101.409628
3961.000000	101.411607
3960.000000	101.413112
3959.000000	101.413834
3958.000000	101.413989
3957.000000	101.413915
3956.000000	101.413753
3955.000000	101.413405
3954.000000	101.412669
3953.000000	101.411485
3952.000000	101.410108
3951.000000	101.409036
3950.000000	101.408657
3949.000000	101.408856
3948.000000	101.409059
3947.000000	101.408802
3946.000000	101.408218
3945.000000	101.407895
3944.000000	101.408272
3943.000000	101.409292
3942.000000	101.410493
3941.000000	101.411363
3940.000000	101.411649
3939.000000	101.411399
3938.000000	101.410865
3937.000000	101.410361
3936.000000	101.410120
3935.000000	101.410181
3934.000000	101.410375
3933.000000	101.410442
3932.000000	101.410276
3931.000000	101.409995
3930.000000	101.409808
3929.000000	101.409813
3928.000000	101.409954
3927.000000	101.410126
3926.000000	101.410262
3925.000000	101.410360
3924.000000	101.410425
3923.000000	101.410438
3922.000000	101.410391
3921.000000	101.410315
3920.000000	101.410283
3919.000000	101.410355
3918.000000	101.410537
3917.000000	101.410778
3916.000000	101.410990
3915.000000	101.411117
3914.000000	101.411155
3913.000000	101.411148
3912.000000	101.411168
3911.000000	101.411256
3910.000000	101.411406
3909.000000	101.411583
3908.000000	101.411757
3907.000000	101.411919
3906.000000	101.412075
3905.000000	101.412233
3904.000000	101.412389
3903.000000	101.412535
3902.000000	101.412640
3901.000000	101.412658
3900.000000	101.412531
3899.000000	101.412239
3898.000000	101.411869
3897.000000	101.411612
3896.000000	101.411620
3895.000000	101.411843
3894.000000	101.412085
3893.000000	101.412188
3892.000000	101.412232
3891.000000	101.412449
3890.000000	101.412889
3889.000000	101.413357
3888.000000	101.413640
3887.000000	101.413678
3886.000000	101.413555
3885.000000	101.413442
3884.000000	101.413417
3883.000000	101.413404
3882.000000	101.413313
3881.000000	101.413170
3880.000000	101.413131
3879.000000	101.413305
3878.000000	101.413634
3877.000000	101.414043
3876.000000	101.414452
3875.000000	101.414673
3874.000000	101.414519
3873.000000	101.414014
3872.000000	101.413440
3871.000000	101.413261
3870.000000	101.413845
3869.000000	101.415009
3868.000000	101.415900
3867.000000	101.415845
3866.000000	101.414875
3865.000000	101.413451
3864.000000	101.412062
3863.000000	101.410941
3862.000000	101.410126
3861.000000	101.409633
3860.000000	101.409416
3859.000000	101.409407
3858.000000	101.409750
3857.000000	101.410976
3856.000000	101.413494
3855.000000	101.416241
3854.000000	101.416796
3853.000000	101.414919
3852.000000	101.413133
3851.000000	101.412776
3850.000000	101.413696
3849.000000	101.415285
3848.000000	101.416846
3847.000000	101.418019
3846.000000	101.419045
3845.000000	101.420488
3844.000000	101.422348
3843.000000	101.423602
3842.000000	101.423047
3841.000000	101.420267
3840.000000	101.415775
3839.000000	101.410820
3838.000000	101.406899
3837.000000	101.405132
3836.000000	101.405661
3835.000000	101.407579
3834.000000	101.409592
3833.000000	101.410647
3832.000000	101.410427
3831.000000	101.409458
3830.000000	101.408512
3829.000000	101.408209
3828.000000	101.409035
3827.000000	101.411224
3826.000000	101.414545
3825.000000	101.418238
3824.000000	101.421214
3823.000000	101.422448
3822.000000	101.421553
3821.000000	101.419980
3820.000000	101.419511
3819.000000	101.419267
3818.000000	101.417761
3817.000000	101.415337
3816.000000	101.413588
3815.000000	101.413362
3814.000000	101.413592
3813.000000	101.412913
3812.000000	101.411499
3811.000000	101.410516
3810.000000	101.410795
3809.000000	101.412382
3808.000000	101.414723
3807.000000	101.416967
3806.000000	101.418300
3805.000000	101.418018
3804.000000	101.416177
3803.000000	101.413722
3802.000000	101.411848
3801.000000	101.411392
3800.000000	101.411905
3799.000000	101.412307
3798.000000	101.412638
3797.000000	101.413667
3796.000000	101.415508
3795.000000	101.417361
3794.000000	101.418423
3793.000000	101.418629
3792.000000	101.418454
3791.000000	101.418377
3790.000000	101.418606
3789.000000	101.419119
3788.000000	101.419773
3787.000000	101.420390
3786.000000	101.420915
3785.000000	101.421508
3784.000000	101.422345
3783.000000	101.423291
3782.000000	101.423908
3781.000000	101.423833
3780.000000	101.423140
3779.000000	101.422373
3778.000000	101.422036
3777.000000	101.422176
3776.000000	101.422611
3775.000000	101.423175
3774.000000	101.423676
3773.000000	101.423831
3772.000000	101.423398
3771.000000	101.422466
3770.000000	101.421653
3769.000000	101.421665
3768.000000	101.422529
3767.000000	101.423631
3766.000000	101.424314
3765.000000	101.424314
3764.000000	101.423693
3763.000000	101.422566
3762.000000	101.421083
3761.000000	101.419511
3760.000000	101.418313
3759.000000	101.418027
3758.000000	101.418783
3757.000000	101.420089
3756.000000	101.421223
3755.000000	101.421791
3754.000000	101.421877
3753.000000	101.421733
3752.000000	101.421379
3751.000000	101.420765
3750.000000	101.419928
3749.000000	101.418236
3748.000000	101.414741
3747.000000	101.409576
3746.000000	101.404292
3745.000000	101.401034
3744.000000	101.400935
3743.000000	101.402657
3742.000000	101.403737
3741.000000	101.403538
3740.000000	101.402681
3739.000000	101.401524
3738.000000	101.399693
3737.000000	101.396785
3736.000000	101.393249
3735.000000	101.390237
3734.000000	101.388316
3733.000000	101.387029
3732.000000	101.386047
3731.000000	101.385444
3730.000000	101.385155
3729.000000	101.385043
3728.000000	101.384818
3727.000000	101.383768
3726.000000	101.381205
3725.000000	101.377337
3724.000000	101.373263
3723.000000	101.369849
3722.000000	101.367036
3721.000000	101.364213
3720.000000	101.361705
3719.000000	101.361313
3718.000000	101.364132
3717.000000	101.368633
3716.000000	101.371474
3715.000000	101.370305
3714.000000	101.365239
3713.000000	101.357365
3712.000000	101.347513
3711.000000	101.336949
3710.000000	101.327112
3709.000000	101.318628
3708.000000	101.311582
3707.000000	101.306488
3706.000000	101.304078
3705.000000	101.304467
3704.000000	101.306318
3703.000000	101.306673
3702.000000	101.303250
3701.000000	101.296781
3700.000000	101.289834
3699.000000	101.284450
3698.000000	101.281033
3697.000000	101.278002
3696.000000	101.273149
3695.000000	101.266133
3694.000000	101.259540
3693.000000	101.256664
3692.000000	101.257598
3691.000000	101.258133
3690.000000	101.254301
3689.000000	101.248345
3688.000000	101.245456
3687.000000	101.245433
3686.000000	101.244518
3685.000000	101.240999
3684.000000	101.235353
3683.000000	101.228147
3682.000000	101.219284
3681.000000	101.209132
3680.000000	101.198400
3679.000000	101.186575
3678.000000	101.171395
3677.000000	101.150313
3676.000000	101.126232
3675.000000	101.109188
3674.000000	101.100340
3673.000000	101.089604
3672.000000	101.073439
3671.000000	101.056866
3670.000000	101.045630
3669.000000	101.039896
3668.000000	101.032417
3667.000000	101.017558
3666.000000	100.997851
3665.000000	100.978765
3664.000000	100.962425
3663.000000	100.947155
3662.000000	100.930472
3661.000000	100.911969
3660.000000	100.893137
3659.000000	100.875934
3658.000000	100.861724
3657.000000	100.850520
3656.000000	100.840949
3655.000000	100.829977
3654.000000	100.815474
3653.000000	100.800036
3652.000000	100.789274
3651.000000	100.784280
3650.000000	100.778329
3649.000000	100.765193
3648.000000	100.747383
3647.000000	100.730746
3646.000000	100.716712
3645.000000	100.703279
3644.000000	100.689276
3643.000000	100.675740
3642.000000	100.663408
3641.000000	100.651035
3640.000000	100.636327
3639.000000	100.618848
3638.000000	100.600798
3637.000000	100.584749
3636.000000	100.571403
3635.000000	100.559331
3634.000000	100.546515
3633.000000	100.532171
3632.000000	100.518600
3631.000000	100.511130
3630.000000	100.513458
3629.000000	100.523168
3628.000000	100.532810
3627.000000	100.533626
3626.000000	100.523908
3625.000000	100.510652
3624.000000	100.501244
3623.000000	100.498789
3622.000000	100.503294
3621.000000	100.512808
3620.000000	100.523698
3619.000000	100.532379
3618.000000	100.537450
3617.000000	100.539926
3616.000000	100.543699
3615.000000	100.553983
3614.000000	100.573733
3613.000000	100.600731
3612.000000	100.628002
3611.000000	100.648217
3610.000000	100.658690
3609.000000	100.662155
3608.000000	100.664283
3607.000000	100.669303
3606.000000	100.677130
3605.000000	100.685568
3604.000000	100.693434
3603.000000	100.700805
3602.000000	100.707530
3601.000000	100.712088
3600.000000	100.713045
3599.000000	100.711564
3598.000000	100.711796
3597.000000	100.717927
3596.000000	100.730237
3595.000000	100.744167
3594.000000	100.754701
3593.000000	100.760394
3592.000000	100.763200
3591.000000	100.765602
3590.000000	100.767832
3589.000000	100.767538
3588.000000	100.763341
3587.000000	100.758608
3586.000000	100.757687
3585.000000	100.760867
3584.000000	100.765892
3583.000000	100.770974
3582.000000	100.775197
3581.000000	100.777969
3580.000000	100.778653
3579.000000	100.776711
3578.000000	100.772356
3577.000000	100.766772
3576.000000	100.761751
3575.000000	100.758882
3574.000000	100.759030
3573.000000	100.762080
3572.000000	100.766774
3571.000000	100.771281
3570.000000	100.774007
3569.000000	100.773784
3568.000000	100.770063
3567.000000	100.763931
3566.000000	100.757571
3565.000000	100.752159
3564.000000	100.748226
3563.000000	100.746460
3562.000000	100.746987
3561.000000	100.748957
3560.000000	100.751076
3559.000000	100.752455
3558.000000	100.753040
3557.000000	100.753563
3556.000000	100.754868
3555.000000	100.757037
3554.000000	100.759068
3553.000000	100.759783
3552.000000	100.758717
3551.000000	100.755985
3550.000000	100.751787
3549.000000	100.746656
3548.000000	100.741875
3547.000000	100.739120
3546.000000	100.739300
3545.000000	100.741976
3544.000000	100.746011
3543.000000	100.750440
3542.000000	100.754363
3541.000000	100.756659
3540.000000	100.756629
3539.000000	100.755037
3538.000000	100.753832
3537.000000	100.754398
3536.000000	100.756407
3535.000000	100.758779
3534.000000	100.761264
3533.000000	100.764352
3532.000000	100.767848
3531.000000	100.770372
3530.000000	100.770755
3529.000000	100.769459
3528.000000	100.768167
3527.000000	100.768058
3526.000000	100.768824
3525.000000	100.769381
3524.000000	100.769136
3523.000000	100.768531
3522.000000	100.768538
3521.000000	100.769756
3520.000000	100.771973
3519.000000	100.774528
3518.000000	100.777030
3517.000000	100.779616
3516.000000	100.782462
3515.000000	100.785202
3514.000000	100.787165
3513.000000	100.788175
3512.000000	100.788901
3511.000000	100.790213
3510.000000	100.792187
3509.000000	100.793923
3508.000000	100.794458
3507.000000	100.793776
3506.000000	100.792827
3505.000000	100.792643
3504.000000	100.793497
3503.000000	100.794930
3502.000000	100.796355
3501.000000	100.797434
3500.000000	100.797923
3499.000000	100.797548
3498.000000	100.796382
3497.000000	100.795287
3496.000000	100.795443
3495.000000	100.797283
3494.000000	100.800105
3493.000000	100.802603
3492.000000	100.804022
3491.000000	100.804487
3490.000000	100.804561
3489.000000	100.804718
3488.000000	100.805163
3487.000000	100.805882
3486.000000	100.806654
3485.000000	100.807113
3484.000000	100.807010
3483.000000	100.806446
3482.000000	100.805755
3481.000000	100.805179
3480.000000	100.804711
3479.000000	100.804265
3478.000000	100.803896
3477.000000	100.803807
3476.000000	100.804154
3475.000000	100.804860
3474.000000	100.805582
3473.000000	100.805871
3472.000000	100.805417
3471.000000	100.804180
3470.000000	100.802328
3469.000000	100.800076
3468.000000	100.797634
3467.000000	100.795350
3466.000000	100.793814
3465.000000	100.793642
3464.000000	100.794951
3463.000000	100.796943
3462.000000	100.798180
3461.000000	100.797566
3460.000000	100.795133
3459.000000	100.791970
3458.000000	100.789385
3457.000000	100.788077
3456.000000	100.787979
3455.000000	100.788629
3454.000000	100.789684
3453.000000	100.791102
3452.000000	100.792925
3451.000000	100.794924
3450.000000	100.796490
3449.000000	100.796962
3448.000000	100.796085
3447.000000	100.793974
3446.000000	100.790740
3445.000000	100.786447
3444.000000	100.781576
3443.000000	100.777239
3442.000000	100.774609
3441.000000	100.774050
3440.000000	100.774813
3439.000000	100.775495
3438.000000	100.774902
3437.000000	100.772705
3436.000000	100.769491
3435.000000	100.766239
3434.000000	100.763649
3433.000000	100.761876
3432.000000	100.760928
3431.000000	100.761153
3430.000000	100.763117
3429.000000	100.766904
3428.000000	100.771611
3427.000000	100.775772
3426.000000	100.778354
3425.000000	100.779229
3424.000000	100.778719
3423.000000	100.777028
3422.000000	100.774306
3421.000000	100.770954
3420.000000	100.767378
3419.000000	100.763577
3418.000000	100.759591
3417.000000	100.756277
3416.000000	100.754924
3415.000000	100.755758
3414.000000	100.757225
3413.000000	100.757335
3412.000000	100.755680
3411.000000	100.753619
3410.000000	100.752592
3409.000000	100.752698
3408.000000	100.752927
3407.000000	100.752296
3406.000000	100.750439
3405.000000	100.747449
3404.000000	100.743691
3403.000000	100.739871
3402.000000	100.736982
3401.000000	100.735778
3400.000000	100.736314
3399.000000	100.738082
3398.000000	100.740562
3397.000000	100.743586
3396.000000	100.747149
3395.000000	100.750869
3394.000000	100.753847
3393.000000	100.755236
3392.000000	100.754954
3391.000000	100.753773
3390.000000	100.752733
3389.000000	100.752503
3388.000000	100.753168
3387.000000	100.754315
3386.000000	100.755242
3385.000000	100.755376
3384.000000	100.754739
3383.000000	100.753921
3382.000000	100.753420
3381.000000	100.753097
3380.000000	100.752519
3379.000000	100.751719
3378.000000	100.751278
3377.000000	100.751587
3376.000000	100.752301
3375.000000	100.752740
3374.000000	100.752618
3373.000000	100.752185
3372.000000	100.751849
3371.000000	100.751912
3370.000000	100.752571
3369.000000	100.753773
3368.000000	100.755002
3367.000000	100.755546
3366.000000	100.755232
3365.000000	100.754801
3364.000000	100.755333
3363.000000	100.757295
3362.000000	100.760262
3361.000000	100.763294
3360.000000	100.765530
3359.000000	100.766586
3358.000000	100.766576
3357.000000	100.766001
3356.000000	100.765510
3355.000000	100.765548
3354.000000	100.766188
3353.000000	100.767243
3352.000000	100.768483
3351.000000	100.769819
3350.000000	100.771358
3349.000000	100.773290
3348.000000	100.775606
3347.000000	100.777914
3346.000000	100.779629
3345.000000	100.780442
3344.000000	100.780525
3343.000000	100.780328
3342.000000	100.780242
3341.000000	100.780536
3340.000000	100.781444
3339.000000	100.783111
3338.000000	100.785420
3337.000000	100.787949
3336.000000	100.790169
3335.000000	100.791739
3334.000000	100.792650
3333.000000	100.793206
3332.000000	100.793840
3331.000000	100.794806
3330.000000	100.796027
3329.000000	100.797261
3328.000000	100.798384
3327.000000	100.799465
3326.000000	100.800594
3325.000000	100.801731
3324.000000	100.802772
3323.000000	100.803726
3322.000000	100.804758
3321.000000	100.806033
3320.000000	100.807511
3319.000000	100.808898
3318.000000	100.809896
3317.000000	100.810533
3316.000000	100.811185
3315.000000	100.812163
3314.000000	100.813339
3313.000000	100.814326
3312.000000	100.814940
3311.000000	100.815360
3310.000000	100.815822
3309.000000	100.816342
3308.000000	100.816830
3307.000000	100.817418
3306.000000	100.818485
3305.000000	100.820280
3304.000000	100.822592
3303.000000	100.824771
3302.000000	100.826232
3301.000000	100.826947
3300.000000	100.827426
3299.000000	100.828198
3298.000000	100.829258
3297.000000	100.830211
3296.000000	100.830861
3295.000000	100.831453
3294.000000	100.832312
3293.000000	100.833430
3292.000000	100.834487
3291.000000	100.835160
3290.000000	100.835350
3289.000000	100.835238
3288.000000	100.835230
3287.000000	100.835658
3286.000000	100.836467
3285.000000	100.837243
3284.000000	100.837641
3283.000000	100.837751
3282.000000	100.837983
3281.000000	100.838610
3280.000000	100.839533
3279.000000	100.840424
3278.000000	100.841046
3277.000000	100.841440
3276.000000	100.841847
3275.000000	100.842462
3274.000000	100.843252
3273.000000	100.844019
3272.000000	100.844636
3271.000000	100.845145
3270.000000	100.845618
3269.000000	100.846048
3268.000000	100.846440
3267.000000	100.846893
3266.000000	100.847469
3265.000000	100.848056
3264.000000	100.848476
3263.000000	100.848712
3262.000000	100.848951
3261.000000	100.849371
3260.000000	100.849989
3259.000000	100.850731
3258.000000	100.851526
3257.000000	100.852299
3256.000000	100.852941
3255.000000	100.853395
3254.000000	100.853732
3253.000000	100.854065
3252.000000	100.854429
3251.000000	100.854794
3250.000000	100.855171
3249.000000	100.855664
3248.000000	100.856411
3247.000000	100.857481
3246.000000	100.858816
3245.000000	100.860220
3244.000000	100.861463
3243.000000	100.862453
3242.000000	100.863254
3241.000000	100.863969
3240.000000	100.864669
3239.000000	100.865442
3238.000000	100.866395
3237.000000	100.867554
3236.000000	100.868778
3235.000000	100.869857
3234.000000	100.870704
3233.000000	100.871444
3232.000000	100.872324
3231.000000	100.873465
3230.000000	100.874755
3229.000000	100.875955
3228.000000	100.876929
3227.000000	100.877733
3226.000000	100.878531
3225.000000	100.879469
3224.000000	100.880621
3223.000000	100.881986
3222.000000	100.883439
3221.000000	100.884762
3220.000000	100.885831
3219.000000	100.886772
3218.000000	100.887851
3217.000000	100.889186
3216.000000	100.890653
3215.000000	100.892053
3214.000000	100.893285
3213.000000	100.894337
3212.000000	100.895249
3211.000000	100.896156
3210.000000	100.897253
3209.000000	100.898594
3208.000000	100.899976
3207.000000	100.901130
3206.000000	100.901973
3205.000000	100.902629
3204.000000	100.903269
3203.000000	100.904039
3202.000000	100.905085
3201.000000	100.906489
3200.000000	100.908090
3199.000000	100.909463
3198.000000	100.910193
3197.000000	100.910161
3196.000000	100.909693
3195.000000	100.909471
3194.000000	100.910081
3193.000000	100.911600
3192.000000	100.913575
3191.000000	100.915474
3190.000000	100.917200
3189.000000	100.918941
3188.000000	100.920663
3187.000000	100.921983
3186.000000	100.922596
3185.000000	100.922700
3184.000000	100.922908
3183.000000	100.923707
3182.000000	100.925082
3181.000000	100.926626
3180.000000	100.927941
3179.000000	100.928930
3178.000000	100.929739
3177.000000	100.930501
3176.000000	100.931259
3175.000000	100.932116
3174.000000	100.933305
3173.000000	100.934967
3172.000000	100.936934
3171.000000	100.938810
3170.000000	100.940324
3169.000000	100.941571
3168.000000	100.942938
3167.000000	100.944777
3166.000000	100.946982
3165.000000	100.948865
3164.000000	100.949626
3163.000000	100.949110
3162.000000	100.948082
3161.000000	100.947658
3160.000000	100.948386
3159.000000	100.949963
3158.000000	100.951632
3157.000000	100.952814
3156.000000	100.953476
3155.000000	100.954019
3154.000000	100.954784
3153.000000	100.955613
3152.000000	100.956051
3151.000000	100.955977
3150.000000	100.955812
3149.000000	100.955910
3148.000000	100.956081
3147.000000	100.956073
3146.000000	100.956322
3145.000000	100.957718
3144.000000	100.960544
3143.000000	100.963938
3142.000000	100.966625
3141.000000	100.968050
3140.000000	100.968561
3139.000000	100.968831
3138.000000	100.969266
3137.000000	100.969904
3136.000000	100.970611
3135.000000	100.971242
3134.000000	100.971698
3133.000000	100.971968
3132.000000	100.972214
3131.000000	100.972752
3130.000000	100.973826
3129.000000	100.975366
3128.000000	100.976995
3127.000000	100.978384
3126.000000	100.979595
3125.000000	100.981002
3124.000000	100.982868
3123.000000	100.985041
3122.000000	100.987066
3121.000000	100.988564
3120.000000	100.989471
3119.000000	100.989945
3118.000000	100.990151
3117.000000	100.990247
3116.000000	100.990511
3115.000000	100.991297
3114.000000	100.992772
3113.000000	100.994799
3112.000000	100.997171
3111.000000	100.999794
3110.000000	101.002399
3109.000000	101.004268
3108.000000	101.004726
3107.000000	101.003883
3106.000000	101.002758
3105.000000	101.002469
3104.000000	101.003268
3103.000000	101.004626
3102.000000	101.005811
3101.000000	101.006440
3100.000000	101.006640
3099.000000	101.006872
3098.000000	101.007547
3097.000000	101.008687
3096.000000	101.009942
3095.000000	101.010942
3094.000000	101.011603
3093.000000	101.012039
3092.000000	101.012350
3091.000000	101.012632
3090.000000	101.013114
3089.000000	101.014026
3088.000000	101.015323
3087.000000	101.016671
3086.000000	101.017785
3085.000000	101.018690
3084.000000	101.019562
3083.000000	101.020445
3082.000000	101.021236
3081.000000	101.021914
3080.000000	101.022609
3079.000000	101.023453
3078.000000	101.024443
3077.000000	101.025450
3076.000000	101.026278
3075.000000	101.026742
3074.000000	101.026843
3073.000000	101.026923
3072.000000	101.027523
3071.000000	101.028970
3070.000000	101.031119
3069.000000	101.033407
3068.000000	101.035171
3067.000000	101.036009
3066.000000	101.035976
3065.000000	101.035712
3064.000000	101.036151
3063.000000	101.037833
3062.000000	101.040501
3061.000000	101.043305
3060.000000	101.045525
3059.000000	101.046974
3058.000000	101.047876
3057.000000	101.048649
3056.000000	101.049714
3055.000000	101.051240
3054.000000	101.052966
3053.000000	101.054373
3052.000000	101.055125
3051.000000	101.055200
3050.000000	101.054586
3049.000000	101.053179
3048.000000	101.051262
3047.000000	101.049884
3046.000000	101.050248
3045.000000	101.052642
3044.000000	101.056294
3043.000000	101.060323
3042.000000	101.064398
3041.000000	101.068188
3040.000000	101.070713
3039.000000	101.071004
3038.000000	101.069379
3037.000000	101.067559
3036.000000	101.067285
3035.000000	101.069088
3034.000000	101.072403
3033.000000	101.076292
3032.000000	101.079927
3031.000000	101.082992
3030.000000	101.086035
3029.000000	101.089942
3028.000000	101.094613
3027.000000	101.098551
3026.000000	101.100373
3025.000000	101.100537
3024.000000	101.101093
3023.000000	101.103676
3022.000000	101.108225
3021.000000	101.113468
3020.000000	101.118021
3019.000000	101.121133
3018.000000	101.123027
3017.000000	101.124977
3016.000000	101.128542
3015.000000	101.134113
3014.000000	101.140263
3013.000000	101.145030
3012.000000	101.147995
3011.000000	101.150659
3010.000000	101.154640
3009.000000	101.159903
3008.000000	101.165074
3007.000000	101.169239
3006.000000	101.172936
3005.000000	101.177188
3004.000000	101.181960
3003.000000	101.186119
3002.000000	101.189041
3001.000000	101.191749
3000.000000	101.195981
2999.000000	101.202197
2998.000000	101.208902
2997.000000	101.214049
2996.000000	101.216981
2995.000000	101.219061
2994.000000	101.222680
2993.000000	101.229635
2992.000000	101.239846
2991.000000	101.251077
2990.000000	101.260014
2989.000000	101.264313
2988.000000	101.264162
2987.000000	101.262257
2986.000000	101.262022
2985.000000	101.265306
2984.000000	101.271563
2983.000000	101.279001
2982.000000	101.286340
2981.000000	101.293322
2980.000000	101.299831
2979.000000	101.305344
2978.000000	101.309680
2977.000000	101.313680
2976.000000	101.318225
2975.000000	101.322556
2974.000000	101.324437
2973.000000	101.322428
2972.000000	101.317610
2971.000000	101.312644
2970.000000	101.309267
2969.000000	101.306963
2968.000000	101.304013
2967.000000	101.299668
2966.000000	101.295264
2965.000000	101.293086
2964.000000	101.294080
2963.000000	101.296819
2962.000000	101.298890
2961.000000	101.299066
2960.000000	101.297834
2959.000000	101.296308
2958.000000	101.295307
2957.000000	101.295211
2956.000000	101.295664
2955.000000	101.295373
2954.000000	101.293193
2953.000000	101.289621
2952.000000	101.286148
2951.000000	101.282972
2950.000000	101.278903
2949.000000	101.274350
2948.000000	101.272451
2947.000000	101.275291
2946.000000	101.280051
2945.000000	101.281656
2944.000000	101.279513
2943.000000	101.279077
2942.000000	101.285538
2941.000000	101.297957
2940.000000	101.310859
2939.000000	101.320358
2938.000000	101.326925
2937.000000	101.332715
2936.000000	101.338354
2935.000000	101.342942
2934.000000	101.346106
2933.000000	101.349240
2932.000000	101.354893
2931.000000	101.364956
2930.000000	101.379104
2929.000000	101.394927
2928.000000	101.409629
2927.000000	101.421218
2926.000000	101.428081
2925.000000	101.428904
2924.000000	101.424491
2923.000000	101.419097
2922.000000	101.417966
2921.000000	101.422603
2920.000000	101.429336
2919.000000	101.432761
2918.000000	101.429935
2917.000000	101.421359
2916.000000	101.409655
2915.000000	101.398166
2914.000000	101.389532
2913.000000	101.384028
2912.000000	101.379107
2911.000000	101.371551
2910.000000	101.360465
2909.000000	101.348036
2908.000000	101.337523
2907.000000	101.330937
2906.000000	101.328442
2905.000000	101.329009
2904.000000	101.331136
2903.000000	101.333396
2902.000000	101.334971
2901.000000	101.335742
2900.000000	101.336039
2899.000000	101.336014
2898.000000	101.335513
2897.000000	101.334265
2896.000000	101.332070
2895.000000	101.328923
2894.000000	101.325178
2893.000000	101.321495
2892.000000	101.318354
2891.000000	101.315573
2890.000000	101.312658
2889.000000	101.309804
2888.000000	101.308165
2887.000000	101.308536
2886.000000	101.309902
2885.000000	101.310045
2884.000000	101.307955
2883.000000	101.305112
2882.000000	101.303852
2881.000000	101.304838
2880.000000	101.306752
2879.000000	101.308022
2878.000000	101.307970
2877.000000	101.306407
2876.000000	101.303249
2875.000000	101.299201
2874.000000	101.296086
2873.000000	101.295552
2872.000000	101.297514
2871.000000	101.300238
2870.000000	101.301913
2869.000000	101.301904
2868.000000	101.300832
2867.000000	101.300050
2866.000000	101.300845
2865.000000	101.303534
2864.000000	101.307165
2863.000000	101.310345
2862.000000	101.312168
2861.000000	101.312172
2860.000000	101.310196
2859.000000	101.307265
2858.000000	101.306119
2857.000000	101.309344
2856.000000	101.316421
2855.000000	101.323578
2854.000000	101.327156
2853.000000	101.326568
2852.000000	101.323731
2851.000000	101.320533
2850.000000	101.317403
2849.000000	101.313561
2848.000000	101.307638
2847.000000	101.298446
2846.000000	101.286309
2845.000000	101.273695
2844.000000	101.263569
2843.000000	101.256915
2842.000000	101.252421
2841.000000	101.248537
2840.000000	101.244996
2839.000000	101.242043
2838.000000	101.239096
2837.000000	101.235100
2836.000000	101.229953
2835.000000	101.224790
2834.000000	101.220785
2833.000000	101.218245
2832.000000	101.216966
2831.000000	101.216989
2830.000000	101.218620
2829.000000	101.221816
2828.000000	101.225729
2827.000000	101.228887
2826.000000	101.229853
2825.000000	101.228088
2824.000000	101.224430
2823.000000	101.220714
2822.000000	101.218552
2821.000000	101.218238
2820.000000	101.218744
2819.000000	101.218784
2818.000000	101.217924
2817.000000	101.216776
2816.000000	101.216333
2815.000000	101.217245
2814.000000	101.219494
2813.000000	101.222313
2812.000000	101.224347
2811.000000	101.224227
2810.000000	101.221611
2809.000000	101.217887
2808.000000	101.215532
2807.000000	101.216271
2806.000000	101.219778
2805.000000	101.224089
2804.000000	101.227329
2803.000000	101.229113
2802.000000	101.230300
2801.000000	101.231700
2800.000000	101.233248
2799.000000	101.234343
2798.000000	101.234709
2797.000000	101.234735
2796.000000	101.235039
2795.000000	101.235802
2794.000000	101.236622
2793.000000	101.237022
2792.000000	101.237034
2791.000000	101.237194
2790.000000	101.237986
2789.000000	101.239392
2788.000000	101.241015
2787.000000	101.242462
2786.000000	101.243561
2785.000000	101.244308
2784.000000	101.244776
2783.000000	101.245153
2782.000000	101.245717
2781.000000	101.246643
2780.000000	101.247846
2779.000000	101.249076
2778.000000	101.250168
2777.000000	101.251163
2776.000000	101.252194
2775.000000	101.253313
2774.000000	101.254464
2773.000000	101.255558
2772.000000	101.256546
2771.000000	101.257438
2770.000000	101.258278
2769.000000	101.259132
2768.000000	101.260051
2767.000000	101.261039
2766.000000	101.262054
2765.000000	101.263042
2764.000000	101.263984
2763.000000	101.264889
2762.000000	101.265772
2761.000000	101.266616
2760.000000	101.267398
2759.000000	101.268127
2758.000000	101.268842
2757.000000	101.269573
2756.000000	101.270319
2755.000000	101.271064
2754.000000	101.271794
2753.000000	101.272502
2752.000000	101.273181
2751.000000	101.273827
2750.000000	101.274457
2749.000000	101.275104
2748.000000	101.275787
2747.000000	101.276496
2746.000000	101.277181
2745.000000	101.277792
2744.000000	101.278310
2743.000000	101.278766
2742.000000	101.279230
2741.000000	101.279758
2740.000000	101.280347
2739.000000	101.280918
2738.000000	101.281369
2737.000000	101.281662
2736.000000	101.281878
2735.000000	101.282167
2734.000000	101.282617
2733.000000	101.283202
2732.000000	101.283817
2731.000000	101.284365
2730.000000	101.284800
2729.000000	101.285113
2728.000000	101.285338
2727.000000	101.285565
2726.000000	101.285851
2725.000000	101.286103
2724.000000	101.286103
2723.000000	101.285736
2722.000000	101.285186
2721.000000	101.284857
2720.000000	101.285067
2719.000000	101.285904
2718.000000	101.287308
2717.000000	101.289113
2716.000000	101.290893
2715.000000	101.292015
2714.000000	101.292101
2713.000000	101.291416
2712.000000	101.290671
2711.000000	101.290315
2710.000000	101.290192
2709.000000	101.289875
2708.000000	101.289125
2707.000000	101.288028
2706.000000	101.286872
2705.000000	101.286044
2704.000000	101.285910
2703.000000	101.286568
2702.000000	101.287659
2701.000000	101.288567
2700.000000	101.288961
2699.000000	101.289105
2698.000000	101.289523
2697.000000	101.290319
2696.000000	101.290927
2695.000000	101.290722
2694.000000	101.289772
2693.000000	101.288791
2692.000000	101.288277
2691.000000	101.288072
2690.000000	101.287877
2689.000000	101.287797
2688.000000	101.288048
2687.000000	101.288428
2686.000000	101.288566
2685.000000	101.288618
2684.000000	101.289184
2683.000000	101.290464
2682.000000	101.291890
2681.000000	101.292737
2680.000000	101.292792
2679.000000	101.292252
2678.000000	101.291383
2677.000000	101.290524
2676.000000	101.290075
2675.000000	101.290037
2674.000000	101.289751
2673.000000	101.288531
2672.000000	101.286547
2671.000000	101.284774
2670.000000	101.283950
2669.000000	101.283894
2668.000000	101.283930
2667.000000	101.283819
2666.000000	101.284034
2665.000000	101.285113
2664.000000	101.286989
2663.000000	101.288974
2662.000000	101.290283
2661.000000	101.290609
2660.000000	101.290226
2659.000000	101.289651
2658.000000	101.289213
2657.000000	101.288961
2656.000000	101.288934
2655.000000	101.289284
2654.000000	101.290049
2653.000000	101.290907
2652.000000	101.291327
2651.000000	101.291063
2650.000000	101.290356
2649.000000	101.289722
2648.000000	101.289498
2647.000000	101.289623
2646.000000	101.289811
2645.000000	101.289811
2644.000000	101.289604
2643.000000	101.289357
2642.000000	101.289235
2641.000000	101.289240
2640.000000	101.289259
2639.000000	101.289216
2638.000000	101.289166
2637.000000	101.289196
2636.000000	101.289313
2635.000000	101.289450
2634.000000	101.289552
2633.000000	101.289625
2632.000000	101.289701
2631.000000	101.289792
2630.000000	101.289890
2629.000000	101.289984
2628.000000	101.290066
2627.000000	101.290127
2626.000000	101.290159
2625.000000	101.290161
2624.000000	101.290137
2623.000000	101.290095
2622.000000	101.290045
2621.000000	101.289996
2620.000000	101.289950
2619.000000	101.289906
2618.000000	101.289861
2617.000000	101.289814
2616.000000	101.289768
2615.000000	101.289726
2614.000000	101.289690
2613.000000	101.289658
2612.000000	101.289632
2611.000000	101.289611
2610.000000	101.289599
2609.000000	101.289599
2608.000000	101.289613
2607.000000	101.289638
2606.000000	101.289673
2605.000000	101.289714
2604.000000	101.289763
2603.000000	101.289822
2602.000000	101.289893
2601.000000	101.289972
2600.000000	101.290058
2599.000000	101.290148
2598.000000	101.290244
2597.000000	101.290344
2596.000000	101.290444
2595.000000	101.290539
2594.000000	101.290628
2593.000000	101.290716
2592.000000	101.290811
2591.000000	101.290917
2590.000000	101.291032
2589.000000	101.291152
2588.000000	101.291274
2587.000000	101.291399
2586.000000	101.291524
2585.000000	101.291647
2584.000000	101.291767
2583.000000	101.291887
2582.000000	101.292014
2581.000000	101.292150
2580.000000	101.292292
2579.000000	101.292436
2578.000000	101.292577
2577.000000	101.292705
2576.000000	101.292815
2575.000000	101.292915
2574.000000	101.293013
2573.000000	101.293116
2572.000000	101.293231
2571.000000	101.293371
2570.000000	101.293547
2569.000000	101.293770
2568.000000	101.294052
2567.000000	101.294380
2566.000000	101.294680
2565.000000	101.294858
2564.000000	101.294897
2563.000000	101.294930
2562.000000	101.295149
2561.000000	101.295655
2560.000000	101.296362
2559.000000	101.297027
2558.000000	101.297435
2557.000000	101.297527
2556.000000	101.297414
2555.000000	101.297251
2554.000000	101.297115
2553.000000	101.297014
2552.000000	101.296983
2551.000000	101.297113
2550.000000	101.297457
2549.000000	101.297946
2548.000000	101.298418
2547.000000	101.298712
2546.000000	101.298730
2545.000000	101.298431
2544.000000	101.297827
2543.000000	101.296993
2542.000000	101.296179
2541.000000	101.295866
2540.000000	101.296525
2539.000000	101.298153
2538.000000	101.300008
2537.000000	101.301190
2536.000000	101.301574
2535.000000	101.301876
2534.000000	101.302817
2533.000000	101.304343
2532.000000	101.305796
2531.000000	101.306636
2530.000000	101.306764
2529.000000	101.306352
2528.000000	101.305696
2527.000000	101.305155
2526.000000	101.304904
2525.000000	101.304760
2524.000000	101.304465
2523.000000	101.304136
2522.000000	101.304217
2521.000000	101.304957
2520.000000	101.306124
2519.000000	101.307185
2518.000000	101.307653
2517.000000	101.307344
2516.000000	101.306501
2515.000000	101.305740
2514.000000	101.305610
2513.000000	101.306153
2512.000000	101.306939
2511.000000	101.307486
2510.000000	101.307585
2509.000000	101.307334
2508.000000	101.307065
2507.000000	101.307251
2506.000000	101.308186
2505.000000	101.309663
2504.000000	101.311130
2503.000000	101.312290
2502.000000	101.313372
2501.000000	101.314651
2500.000000	101.315903
2499.000000	101.316612
2498.000000	101.316658
2497.000000	101.316557
2496.000000	101.316935
2495.000000	101.317834
2494.000000	101.318729
2493.000000	101.319203
2492.000000	101.319384
2491.000000	101.319672
2490.000000	101.320205
2489.000000	101.320739
2488.000000	101.321009
2487.000000	101.321074
2486.000000	101.321311
2485.000000	101.322102
2484.000000	101.323490
2483.000000	101.325050
2482.000000	101.326153
2481.000000	101.326559
2480.000000	101.326717
2479.000000	101.327311
2478.000000	101.328358
2477.000000	101.329078
2476.000000	101.328822
2475.000000	101.327873
2474.000000	101.327159
2473.000000	101.327198
2472.000000	101.327819
2471.000000	101.328779
2470.000000	101.330131
2469.000000	101.331847
2468.000000	101.333544
2467.000000	101.334860
2466.000000	101.335771
2465.000000	101.336365
2464.000000	101.336632
2463.000000	101.336719
2462.000000	101.337129
2461.000000	101.338290
2460.000000	101.340058
2459.000000	101.341845
2458.000000	101.343197
2457.000000	101.344012
2456.000000	101.344305
2455.000000	101.344202
2454.000000	101.344168
2453.000000	101.344804
2452.000000	101.346233
2451.000000	101.347941
2450.000000	101.349399
2449.000000	101.350636
2448.000000	101.351899
2447.000000	101.352991
2446.000000	101.353386
2445.000000	101.352947
2444.000000	101.352211
2443.000000	101.351878
2442.000000	101.352207
2441.000000	101.352991
2440.000000	101.353879
2439.000000	101.354603
2438.000000	101.355002
2437.000000	101.355001
2436.000000	101.354648
2435.000000	101.354193
2434.000000	101.354058
2433.000000	101.354612
2432.000000	101.355918
2431.000000	101.357682
2430.000000	101.359400
2429.000000	101.360629
2428.000000	101.361193
2427.000000	101.361228
2426.000000	101.361082
2425.000000	101.361051
2424.000000	101.361190
2423.000000	101.361407
2422.000000	101.361669
2421.000000	101.362060
2420.000000	101.362650
2419.000000	101.363450
2418.000000	101.364434
2417.000000	101.365488
2416.000000	101.366392
2415.000000	101.366995
2414.000000	101.367414
2413.000000	101.367881
2412.000000	101.368396
2411.000000	101.368758
2410.000000	101.368989
2409.000000	101.369435
2408.000000	101.370258
2407.000000	101.371038
2406.000000	101.371160
2405.000000	101.370519
2404.000000	101.369683
2403.000000	101.369393
2402.000000	101.370009
2401.000000	101.371481
2400.000000	101.373513
2399.000000	101.375655
2398.000000	101.377446
2397.000000	101.378601
2396.000000	101.379194
2395.000000	101.379618
2394.000000	101.380260
2393.000000	101.381110
2392.000000	101.381782
2391.000000	101.381998
2390.000000	101.381936
2389.000000	101.381916
2388.000000	101.381853
2387.000000	101.381400
2386.000000	101.380657
2385.000000	101.380291
2384.000000	101.380698
2383.000000	101.381484
2382.000000	101.381964
2381.000000	101.382012
2380.000000	101.382121
2379.000000	101.382698
2378.000000	101.383615
2377.000000	101.384451
2376.000000	101.384985
2375.000000	101.385275
2374.000000	101.385401
2373.000000	101.385375
2372.000000	101.385265
2371.000000	101.385231
2370.000000	101.385373
2369.000000	101.385653
2368.000000	101.385985
2367.000000	101.386357
2366.000000	101.386778
2365.000000	101.387194
2364.000000	101.387533
2363.000000	101.387808
2362.000000	101.388077
2361.000000	101.388354
2360.000000	101.388620
2359.000000	101.388866
2358.000000	101.389089
2357.000000	101.389291
2356.000000	101.389481
2355.000000	101.389668
2354.000000	101.389856
2353.000000	101.390044
2352.000000	101.390229
2351.000000	101.390412
2350.000000	101.390589
2349.000000	101.390756
2348.000000	101.390910
2347.000000	101.391049
2346.000000	101.391170
2345.000000	101.391278
2344.000000	101.391377
2343.000000	101.391463
2342.000000	101.391527
2341.000000	101.391560
2340.000000	101.391560
2339.000000	101.391526
2338.000000	101.391455
2337.000000	101.391346
2336.000000	101.391209
2335.000000	101.391075
2334.000000	101.390976
2333.000000	101.390914
2332.000000	101.390838
2331.000000	101.390688
2330.000000	101.390447
2329.000000	101.390121
2328.000000	101.389736
2327.000000	101.389321
2326.000000	101.388952
2325.000000	101.388689
2324.000000	101.388509
2323.000000	101.388268
2322.000000	101.387846
2321.000000	101.387353
2320.000000	101.387039
2319.000000	101.386988
2318.000000	101.386966
2317.000000	101.386710
2316.000000	101.386250
2315.000000	101.385730
2314.000000	101.385227
2313.000000	101.384660
2312.000000	101.384017
2311.000000	101.383190
2310.000000	101.382013
2309.000000	101.380394
2308.000000	101.378669
2307.000000	101.377325
2306.000000	101.376578
2305.000000	101.376089
2304.000000	101.375344
2303.000000	101.374145
2302.000000	101.372889
2301.000000	101.372148
2300.000000	101.372092
2299.000000	101.372199
2298.000000	101.371854
2297.000000	101.370973
2296.000000	101.370111
2295.000000	101.369743
2294.000000	101.369801
2293.000000	101.369756
2292.000000	101.369179
2291.000000	101.367991
2290.000000	101.366400
2289.000000	101.364726
2288.000000	101.363291
2287.000000	101.362247
2286.000000	101.361549
2285.000000	101.361108
2284.000000	101.360868
2283.000000	101.360702
2282.000000	101.360344
2281.000000	101.359598
2280.000000	101.358509
2279.000000	101.357271
2278.000000	101.356054
2277.000000	101.354988
2276.000000	101.354158
2275.000000	101.353483
2274.000000	101.352711
2273.000000	101.351668
2272.000000	101.350475
2271.000000	101.349391
2270.000000	101.348482
2269.000000	101.347605
2268.000000	101.346652
2267.000000	101.345685
2266.000000	101.344844
2265.000000	101.344184
2264.000000	101.343662
2263.000000	101.343178
2262.000000	101.342625
2261.000000	101.341935
2260.000000	101.341111
2259.000000	101.340246
2258.000000	101.339460
2257.000000	101.338806
2256.000000	101.338240
2255.000000	101.337670
2254.000000	101.337041
2253.000000	101.336386
2252.000000	101.335780
2251.000000	101.335246
2250.000000	101.334729
2249.000000	101.334177
2248.000000	101.333607
2247.000000	101.333058
2246.000000	101.332527
2245.000000	101.332006
2244.000000	101.331543
2243.000000	101.331208
2242.000000	101.330994
2241.000000	101.330796
2240.000000	101.330505
2239.000000	101.330093
2238.000000	101.329613
2237.000000	101.329167
2236.000000	101.328848
2235.000000	101.328695
2234.000000	101.328699
2233.000000	101.328849
2232.000000	101.329105
2231.000000	101.329308
2230.000000	101.329233
2229.000000	101.328787
2228.000000	101.328144
2227.000000	101.327654
2226.000000	101.327484
2225.000000	101.327538
2224.000000	101.327647
2223.000000	101.327788
2222.000000	101.327969
2221.000000	101.328080
2220.000000	101.328009
2219.000000	101.327849
2218.000000	101.327835
2217.000000	101.328121
2216.000000	101.328733
2215.000000	101.329615
2214.000000	101.330559
2213.000000	101.331184
2212.000000	101.331197
2211.000000	101.330651
2210.000000	101.329900
2209.000000	101.329312
2208.000000	101.329057
2207.000000	101.329072
2206.000000	101.329101
2205.000000	101.328918
2204.000000	101.328645
2203.000000	101.328701
2202.000000	101.329316
2201.000000	101.330237
2200.000000	101.331050
2199.000000	101.331648
2198.000000	101.332154
2197.000000	101.332496
2196.000000	101.332409
2195.000000	101.331865
2194.000000	101.331240
2193.000000	101.330980
2192.000000	101.331236
2191.000000	101.331845
2190.000000	101.332452
2189.000000	101.332681
2188.000000	101.332362
2187.000000	101.331728
2186.000000	101.331265
2185.000000	101.331230
2184.000000	101.331500
2183.000000	101.331858
2182.000000	101.332309
2181.000000	101.332976
2180.000000	101.333801
2179.000000	101.334556
2178.000000	101.335150
2177.000000	101.335791
2176.000000	101.336696
2175.000000	101.337725
2174.000000	101.338456
2173.000000	101.338690
2172.000000	101.338682
2171.000000	101.338844
2170.000000	101.339291
2169.000000	101.339822
2168.000000	101.340241
2167.000000	101.340553
2166.000000	101.340862
2165.000000	101.341242
2164.000000	101.341722
2163.000000	101.342318
2162.000000	101.343005
2161.000000	101.343707
2160.000000	101.344358
2159.000000	101.344928
2158.000000	101.345421
2157.000000	101.345869
2156.000000	101.346326
2155.000000	101.346832
2154.000000	101.347377
2153.000000	101.347928
2152.000000	101.348473
2151.000000	101.349024
2150.000000	101.349589
2149.000000	101.350163
2148.000000	101.350743
2147.000000	101.351327
2146.000000	101.351914
2145.000000	101.352503
2144.000000	101.353093
2143.000000	101.353683
2142.000000	101.354268
2141.000000	101.354846
2140.000000	101.355413
2139.000000	101.355971
2138.000000	101.356526
2137.000000	101.357092
2136.000000	101.357676
2135.000000	101.358283
2134.000000	101.358909
2133.000000	101.359550
2132.000000	101.360206
2131.000000	101.360883
2130.000000	101.361587
2129.000000	101.362320
2128.000000	101.363076
2127.000000	101.363845
2126.000000	101.364620
2125.000000	101.365398
2124.000000	101.366182
2123.000000	101.366972
2122.000000	101.367769
2121.000000	101.368568
2120.000000	101.369365
2119.000000	101.370159
2118.000000	101.370956
2117.000000	101.371767
2116.000000	101.372607
2115.000000	101.373485
2114.000000	101.374401
2113.000000	101.375354
2112.000000	101.376340
2111.000000	101.377344
2110.000000	101.378314
2109.000000	101.379173
2108.000000	101.379919
2107.000000	101.380683
2106.000000	101.381630
2105.000000	101.382765
2104.000000	101.383892
2103.000000	101.384844
2102.000000	101.385638
2101.000000	101.386380
2100.000000	101.387111
2099.000000	101.387863
2098.000000	101.388829
2097.000000	101.390302
2096.000000	101.392293
2095.000000	101.394309
2094.000000	101.395713
2093.000000	101.396371
2092.000000	101.396832
2091.000000	101.397750
2090.000000	101.399211
2089.000000	101.400811
2088.000000	101.402261
2087.000000	101.403636
2086.000000	101.405016
2085.000000	101.406198
2084.000000	101.406958
2083.000000	101.407451
2082.000000	101.408140
2081.000000	101.409337
2080.000000	101.410846
2079.000000	101.412091
2078.000000	101.412655
2077.000000	101.412776
2076.000000	101.413237
2075.000000	101.414640
2074.000000	101.416901
2073.000000	101.419452
2072.000000	101.421756
2071.000000	101.423475
2070.000000	101.424379
2069.000000	101.424466
2068.000000	101.424153
2067.000000	101.423995
2066.000000	101.424108
2065.000000	101.424051
2064.000000	101.423390
2063.000000	101.422239
2062.000000	101.421075
2061.000000	101.420195
2060.000000	101.419537
2059.000000	101.418936
2058.000000	101.418397
2057.000000	101.418081
2056.000000	101.418107
2055.000000	101.418460
2054.000000	101.418996
2053.000000	101.419411
2052.000000	101.419288
2051.000000	101.418467
2050.000000	101.417463
2049.000000	101.417210
2048.000000	101.418097
2047.000000	101.419312
2046.000000	101.419427
2045.000000	101.417758
2044.000000	101.414964
2043.000000	101.412506
2042.000000	101.411433
2041.000000	101.411634
2040.000000	101.411995
2039.000000	101.411281
2038.000000	101.409127
2037.000000	101.406250
2036.000000	101.403778
2035.000000	101.402225
2034.000000	101.401272
2033.000000	101.400428
2032.000000	101.399565
2031.000000	101.398745
2030.000000	101.397851
2029.000000	101.396713
2028.000000	101.395435
2027.000000	101.394310
2026.000000	101.393422
2025.000000	101.392535
2024.000000	101.391404
2023.000000	101.390047
2022.000000	101.388654
2021.000000	101.387343
2020.000000	101.386074
2019.000000	101.384743
2018.000000	101.383293
2017.000000	101.381785
2016.000000	101.380378
2015.000000	101.379213
2014.000000	101.378292
2013.000000	101.377507
2012.000000	101.376720
2011.000000	101.375801
2010.000000	101.374654
2009.000000	101.373338
2008.000000	101.372132
2007.000000	101.371306
2006.000000	101.370823
2005.000000	101.370344
2004.000000	101.369588
2003.000000	101.368578
2002.000000	101.367523
2001.000000	101.366622
2000.000000	101.365989
1999.000000	101.365624
1998.000000	101.365373
1997.000000	101.365021
1996.000000	101.364472
1995.000000	101.363804
1994.000000	101.363169
1993.000000	101.362627
1992.000000	101.362125
1991.000000	101.361610
1990.000000	101.361087
1989.000000	101.360581
1988.000000	101.360094
1987.000000	101.359651
1986.000000	101.359307
1985.000000	101.359079
1984.000000	101.358882
1983.000000	101.358580
1982.000000	101.358121
1981.000000	101.357567
1980.000000	101.357021
1979.000000	101.356538
1978.000000	101.356147
1977.000000	101.355887
1976.000000	101.355765
1975.000000	101.355682
1974.000000	101.355473
1973.000000	101.355040
1972.000000	101.354404
1971.000000	101.353678
1970.000000	101.353020
1969.000000	101.352581
1968.000000	101.352393
1967.000000	101.352299
1966.000000	101.352113
1965.000000	101.351846
1964.000000	101.351627
1963.000000	101.351413
1962.000000	101.350947
1961.000000	101.350057
1960.000000	101.348898
1959.000000	101.347871
1958.000000	101.347388
1957.000000	101.347682
1956.000000	101.348550
1955.000000	101.349236
1954.000000	101.349013
1953.000000	101.348017
1952.000000	101.347198
1951.000000	101.347157
1950.000000	101.347350
1949.000000	101.346758
1948.000000	101.344977
1947.000000	101.342294
1946.000000	101.339171
1945.000000	101.336115
1944.000000	101.333733
1943.000000	101.332396
1942.000000	101.331922
1941.000000	101.331930
1940.000000	101.332319
1939.000000	101.333081
1938.000000	101.333880
1937.000000	101.334266
1936.000000	101.334093
1935.000000	101.333304
1934.000000	101.331617
1933.000000	101.328935
1932.000000	101.325873
1931.000000	101.323203
1930.000000	101.320919
1929.000000	101.318667
1928.000000	101.316709
1927.000000	101.315549
1926.000000	101.314786
1925.000000	101.313464
1924.000000	101.311699
1923.000000	101.310955
1922.000000	101.312067
1921.000000	101.313774
1920.000000	101.313955
1919.000000	101.311488
1918.000000	101.306966
1917.000000	101.302424
1916.000000	101.299346
1915.000000	101.297094
1914.000000	101.294048
1913.000000	101.289750
1912.000000	101.285572
1911.000000	101.282934
1910.000000	101.281413
1909.000000	101.279649
1908.000000	101.277324
1907.000000	101.274786
1906.000000	101.271477
1905.000000	101.266693
1904.000000	101.261659
1903.000000	101.258635
1902.000000	101.257707
1901.000000	101.256312
1900.000000	101.252224
1899.000000	101.245766
1898.000000	101.238949
1897.000000	101.233735
1896.000000	101.231408
1895.000000	101.231928
1894.000000	101.233224
1893.000000	101.232812
1892.000000	101.230537
1891.000000	101.228200
1890.000000	101.226618
1889.000000	101.224730
1888.000000	101.221825
1887.000000	101.218703
1886.000000	101.216256
1885.000000	101.214245
1884.000000	101.211970
1883.000000	101.209186
1882.000000	101.205938
1881.000000	101.202767
1880.000000	101.201000
1879.000000	101.201553
1878.000000	101.203222
1877.000000	101.203284
1876.000000	101.200606
1875.000000	101.197016
1874.000000	101.194883
1873.000000	101.194863
1872.000000	101.196501
1871.000000	101.199292
1870.000000	101.201959
1869.000000	101.202683
1868.000000	101.202105
1867.000000	101.202520
1866.000000	101.203892
1865.000000	101.204768
1864.000000	101.205409
1863.000000	101.207644
1862.000000	101.211858
1861.000000	101.215869
1860.000000	101.217780
1859.000000	101.218462
1858.000000	101.219987
1857.000000	101.223173
1856.000000	101.227738
1855.000000	101.233070
1854.000000	101.237810
1853.000000	101.240291
1852.000000	101.240461
1851.000000	101.240609
1850.000000	101.243109
1849.000000	101.247785
1848.000000	101.252525
1847.000000	101.256253
1846.000000	101.259839
1845.000000	101.263935
1844.000000	101.267701
1843.000000	101.270261
1842.000000	101.271236
1841.000000	101.270888
1840.000000	101.270249
1839.000000	101.270360
1838.000000	101.271189
1837.000000	101.271513
1836.000000	101.270475
1835.000000	101.269006
1834.000000	101.269188
1833.000000	101.272255
1832.000000	101.277232
1831.000000	101.281231
1830.000000	101.281611
1829.000000	101.278695
1828.000000	101.275046
1827.000000	101.272711
1826.000000	101.272070
1825.000000	101.272097
1824.000000	101.272109
1823.000000	101.272720
1822.000000	101.274332
1821.000000	101.275935
1820.000000	101.276286
1819.000000	101.275959
1818.000000	101.276593
1817.000000	101.278181
1816.000000	101.278940
1815.000000	101.278012
1814.000000	101.276744
1813.000000	101.276934
1812.000000	101.278922
1811.000000	101.281709
1810.000000	101.283859
1809.000000	101.284469
1808.000000	101.284094
1807.000000	101.283957
1806.000000	101.284114
1805.000000	101.283495
1804.000000	101.281853
1803.000000	101.280463
1802.000000	101.280357
1801.000000	101.280695
1800.000000	101.280304
1799.000000	101.280138
1798.000000	101.281816
1797.000000	101.285031
1796.000000	101.288102
1795.000000	101.290312
1794.000000	101.292519
1793.000000	101.295107
1792.000000	101.297321
1791.000000	101.299179
1790.000000	101.300634
1789.000000	101.300945
1788.000000	101.300194
1787.000000	101.299550
1786.000000	101.300311
1785.000000	101.303080
1784.000000	101.307580
1783.000000	101.312704
1782.000000	101.317179
1781.000000	101.319861
1780.000000	101.320349
1779.000000	101.319956
1778.000000	101.320588
1777.000000	101.322946
1776.000000	101.326093
1775.000000	101.329216
1774.000000	101.333177
1773.000000	101.338106
1772.000000	101.341234
1771.000000	101.341353
1770.000000	101.340821
1769.000000	101.342572
1768.000000	101.347814
1767.000000	101.355065
1766.000000	101.361828
1765.000000	101.367377
1764.000000	101.373021
1763.000000	101.379655
1762.000000	101.385902
1761.000000	101.389246
1760.000000	101.388786
1759.000000	101.386617
1758.000000	101.386245
1757.000000	101.389289
1756.000000	101.393626
1755.000000	101.396296
1754.000000	101.397433
1753.000000	101.399343
1752.000000	101.402541
1751.000000	101.404857
1750.000000	101.405433
1749.000000	101.405982
1748.000000	101.407266
1747.000000	101.408137
1746.000000	101.408055
1745.000000	101.407760
1744.000000	101.408008
1743.000000	101.408976
1742.000000	101.410130
1741.000000	101.410151
1740.000000	101.407870
1739.000000	101.404296
1738.000000	101.401651
1737.000000	101.400554
1736.000000	101.401257
1735.000000	101.403053
1734.000000	101.402935
1733.000000	101.401591
1732.000000	101.400696
1731.000000	101.399720
1730.000000	101.398501
1729.000000	101.397105
1728.000000	101.395362
1727.000000	101.393664
1726.000000	101.393268
1725.000000	101.394535
1724.000000	101.396044
1723.000000	101.396029
1722.000000	101.393800
1721.000000	101.389746
1720.000000	101.385039
1719.000000	101.381385
1718.000000	101.379912
1717.000000	101.379953
1716.000000	101.380175
1715.000000	101.380109
1714.000000	101.379783
1713.000000	101.379077
1712.000000	101.377639
1711.000000	101.375067
1710.000000	101.371433
1709.000000	101.367555
1708.000000	101.364470
1707.000000	101.362585
1706.000000	101.361009
1705.000000	101.358300
1704.000000	101.354167
1703.000000	101.349588
1702.000000	101.346064
1701.000000	101.344059
1700.000000	101.342262
1699.000000	101.340622
1698.000000	101.339071
1697.000000	101.337167
1696.000000	101.335001
1695.000000	101.333324
1694.000000	101.332256
1693.000000	101.330938
1692.000000	101.329037
1691.000000	101.326607
1690.000000	101.323636
1689.000000	101.320180
1688.000000	101.316464
1687.000000	101.313045
1686.000000	101.310703
1685.000000	101.308695
1684.000000	101.304781
1683.000000	101.300298
1682.000000	101.296831
1681.000000	101.294186
1680.000000	101.292102
1679.000000	101.290323
1678.000000	101.288875
1677.000000	101.288081
1676.000000	101.287473
1675.000000	101.285573
1674.000000	101.282433
1673.000000	101.279683
1672.000000	101.278359
1671.000000	101.278056
1670.000000	101.276957
1669.000000	101.274382
1668.000000	101.271836
1667.000000	101.270030
1666.000000	101.268460
1665.000000	101.266654
1664.000000	101.264389
1663.000000	101.261389
1662.000000	101.258170
1661.000000	101.256047
1660.000000	101.255207
1659.000000	101.254430
1658.000000	101.252163
1657.000000	101.247573
1656.000000	101.241585
1655.000000	101.237181
1654.000000	101.236007
1653.000000	101.235374
1652.000000	101.237612
1651.000000	101.240415
1650.000000	101.240020
1649.000000	101.237061
1648.000000	101.234550
1647.000000	101.235224
1646.000000	101.239044
1645.000000	101.242192
1644.000000	101.242019
1643.000000	101.240402
1642.000000	101.240309
1641.000000	101.242422
1640.000000	101.244616
1639.000000	101.244628
1638.000000	101.242615
1637.000000	101.240486
1636.000000	101.238978
1635.000000	101.238426
1634.000000	101.239440
1633.000000	101.240634
1632.000000	101.241915
1631.000000	101.244132
1630.000000	101.247225
1629.000000	101.250111
1628.000000	101.251935
1627.000000	101.252646
1626.000000	101.252915
1625.000000	101.254100
1624.000000	101.257176
1623.000000	101.261659
1622.000000	101.266866
1621.000000	101.272401
1620.000000	101.277254
1619.000000	101.280653
1618.000000	101.282528
1617.000000	101.283985
1616.000000	101.288389
1615.000000	101.295655
1614.000000	101.301059
1613.000000	101.303415
1612.000000	101.305479
1611.000000	101.308919
1610.000000	101.312376
1609.000000	101.314855
1608.000000	101.317497
1607.000000	101.320973
1606.000000	101.324690
1605.000000	101.328818
1604.000000	101.334235
1603.000000	101.340783
1602.000000	101.347221
1601.000000	101.353078
1600.000000	101.359236
1599.000000	101.366299
1598.000000	101.373603
1597.000000	101.379743
1596.000000	101.383520
1595.000000	101.384483
1594.000000	101.383307
1593.000000	101.382046
1592.000000	101.382863
1591.000000	101.386016
1590.000000	101.389613
1589.000000	101.391819
1588.000000	101.392831
1587.000000	101.394353
1586.000000	101.397683
1585.000000	101.402627
1584.000000	101.407515
1583.000000	101.410618
1582.000000	101.411857
1581.000000	101.412239
1580.000000	101.411667
1579.000000	101.409092
1578.000000	101.405050
1577.000000	101.402372
1576.000000	101.403582
1575.000000	101.407642
1574.000000	101.410666
1573.000000	101.410852
1572.000000	101.409174
1571.000000	101.407043
1570.000000	101.405028
1569.000000	101.404780
1568.000000	101.407225
1567.000000	101.410256
1566.000000	101.412375
1565.000000	101.413721
1564.000000	101.414241
1563.000000	101.413040
1562.000000	101.410515
1561.000000	101.410053
1560.000000	101.413192
1559.000000	101.410359
1558.000000	101.402434
1557.000000	101.399615
1556.000000	101.399630
1555.000000	101.399705
1554.000000	101.398958
1553.000000	101.397438
1552.000000	101.395217
1551.000000	101.392600
1550.000000	101.389912
1549.000000	101.387530
1548.000000	101.385665
1547.000000	101.384426
1546.000000	101.383862
1545.000000	101.383135
1544.000000	101.381387
1543.000000	101.379273
1542.000000	101.377984
1541.000000	101.376198
1540.000000	101.371347
1539.000000	101.366420
1538.000000	101.362900
1537.000000	101.357425
1536.000000	101.349221
1535.000000	101.340265
1534.000000	101.332847
1533.000000	101.328135
1532.000000	101.325851
1531.000000	101.324093
1530.000000	101.321177
1529.000000	101.316146
1528.000000	101.308839
1527.000000	101.300696
1526.000000	101.294235
1525.000000	101.290428
1524.000000	101.288560
1523.000000	101.288416
1522.000000	101.289246
1521.000000	101.288802
1520.000000	101.286363
1519.000000	101.282399
1518.000000	101.277891
1517.000000	101.273266
1516.000000	101.268476
1515.000000	101.263566
1514.000000	101.258622
1513.000000	101.253820
1512.000000	101.249042
1511.000000	101.244861
1510.000000	101.243047
1509.000000	101.245544
1508.000000	101.251981
1507.000000	101.256694
1506.000000	101.256015
1505.000000	101.252635
1504.000000	101.248378
1503.000000	101.244501
1502.000000	101.242049
1501.000000	101.241619
1500.000000	101.242491
1499.000000	101.243117
1498.000000	101.242270
1497.000000	101.239084
1496.000000	101.234525
1495.000000	101.231612
1494.000000	101.231237
1493.000000	101.231681
1492.000000	101.231178
1491.000000	101.229055
1490.000000	101.226176
1489.000000	101.224308
1488.000000	101.224212
1487.000000	101.225672
1486.000000	101.227285
1485.000000	101.227631
1484.000000	101.226799
1483.000000	101.226245
1482.000000	101.227436
1481.000000	101.230033
1480.000000	101.232544
1479.000000	101.234443
1478.000000	101.236164
1477.000000	101.237368
1476.000000	101.237761
1475.000000	101.239438
1474.000000	101.245231
1473.000000	101.253901
1472.000000	101.260030
1471.000000	101.261562
1470.000000	101.260080
1469.000000	101.257072
1468.000000	101.253170
1467.000000	101.249317
1466.000000	101.247085
1465.000000	101.246541
1464.000000	101.245729
1463.000000	101.243534
1462.000000	101.240751
1461.000000	101.238232
1460.000000	101.235770
1459.000000	101.233289
1458.000000	101.232607
1457.000000	101.235855
1456.000000	101.241565
1455.000000	101.244465
1454.000000	101.243941
1453.000000	101.243528
1452.000000	101.244956
1451.000000	101.247015
1450.000000	101.247899
1449.000000	101.246541
1448.000000	101.242229
1447.000000	101.235441
1446.000000	101.228063
1445.000000	101.221163
1444.000000	101.214840
1443.000000	101.210151
1442.000000	101.208712
1441.000000	101.210249
1440.000000	101.212084
1439.000000	101.212607
1438.000000	101.213234
1437.000000	101.214617
1436.000000	101.214673
1435.000000	101.212495
1434.000000	101.209774
1433.000000	101.208488
1432.000000	101.208937
1431.000000	101.209990
1430.000000	101.212148
1429.000000	101.217006
1428.000000	101.222783
1427.000000	101.225248
1426.000000	101.224061
1425.000000	101.223892
1424.000000	101.227791
1423.000000	101.232795
1422.000000	101.234641
1421.000000	101.233922
1420.000000	101.234133
1419.000000	101.236902
1418.000000	101.242982
1417.000000	101.251258
1416.000000	101.260003
1415.000000	101.269394
1414.000000	101.279288
1413.000000	101.288059
1412.000000	101.294252
1411.000000	101.298603
1410.000000	101.303498
1409.000000	101.309771
1408.000000	101.315913
1407.000000	101.320616
1406.000000	101.324830
1405.000000	101.330763
1404.000000	101.338128
1403.000000	101.343833
1402.000000	101.345955
1401.000000	101.345280
1400.000000	101.343661
1399.000000	101.343203
1398.000000	101.346637
1397.000000	101.355478
1396.000000	101.368335
1395.000000	101.380797
1394.000000	101.388880
1393.000000	101.392663
1392.000000	101.394231
1391.000000	101.395334
1390.000000	101.396604
1389.000000	101.397692
1388.000000	101.398259
1387.000000	101.399252
1386.000000	101.402358
1385.000000	101.407776
1384.000000	101.413967
1383.000000	101.419150
1382.000000	101.422262
1381.000000	101.423424
1380.000000	101.423687
1379.000000	101.424089
1378.000000	101.425125
1377.000000	101.426665
1376.000000	101.427879
1375.000000	101.427405
1374.000000	101.424653
1373.000000	101.420626
1372.000000	101.416543
1371.000000	101.413492
1370.000000	101.412879
1369.000000	101.415450
1368.000000	101.419753
1367.000000	101.423254
1366.000000	101.425086
1365.000000	101.426212
1364.000000	101.427099
1363.000000	101.426893
1362.000000	101.425109
1361.000000	101.422579
1360.000000	101.420087
1359.000000	101.417777
1358.000000	101.416050
1357.000000	101.415965
1356.000000	101.418158
1355.000000	101.421880
1354.000000	101.425540
1353.000000	101.427774
1352.000000	101.427879
1351.000000	101.425845
1350.000000	101.422603
1349.000000	101.420047
1348.000000	101.419510
1347.000000	101.420698
1346.000000	101.422451
1345.000000	101.423831
1344.000000	101.423810
1343.000000	101.421011
1342.000000	101.415067
1341.000000	101.408220
1340.000000	101.404356
1339.000000	101.405363
1338.000000	101.409186
1337.000000	101.412392
1336.000000	101.413743
1335.000000	101.414465
1334.000000	101.416272
1333.000000	101.419665
1332.000000	101.423426
1331.000000	101.425480
1330.000000	101.424937
1329.000000	101.423547
1328.000000	101.424288
1327.000000	101.427889
1326.000000	101.431487
1325.000000	101.431647
1324.000000	101.428006
1323.000000	101.423579
1322.000000	101.421496
1321.000000	101.421658
1320.000000	101.421158
1319.000000	101.417975
1318.000000	101.413743
1317.000000	101.412075
1316.000000	101.414453
1315.000000	101.418907
1314.000000	101.422522
1313.000000	101.424214
1312.000000	101.424673
1311.000000	101.424553
1310.000000	101.423988
1309.000000	101.423510
1308.000000	101.424058
1307.000000	101.425705
1306.000000	101.427287
1305.000000	101.427924
1304.000000	101.427862
1303.000000	101.427382
1302.000000	101.425913
1301.000000	101.423221
1300.000000	101.420821
1299.000000	101.420849
1298.000000	101.423324
1297.000000	101.425716
1296.000000	101.425762
1295.000000	101.423799
1294.000000	101.421792
1293.000000	101.420844
1292.000000	101.420469
1291.000000	101.419756
1290.000000	101.418274
1289.000000	101.416004
1288.000000	101.413336
1287.000000	101.411105
1286.000000	101.409733
1285.000000	101.408281
1284.000000	101.405299
1283.000000	101.400980
1282.000000	101.397590
1281.000000	101.397027
1280.000000	101.398477
1279.000000	101.399292
1278.000000	101.398295
1277.000000	101.397338
1276.000000	101.399018
1275.000000	101.403378
1274.000000	101.407761
1273.000000	101.409956
1272.000000	101.410545
1271.000000	101.411667
1270.000000	101.414282
1269.000000	101.417569
1268.000000	101.420500
1267.000000	101.422619
1266.000000	101.423253
1265.000000	101.421290
1264.000000	101.416653
1263.000000	101.411304
1262.000000	101.407651
1261.000000	101.406076
1260.000000	101.404826
1259.000000	101.402217
1258.000000	101.398132
1257.000000	101.392966
1256.000000	101.385935
1255.000000	101.375611
1254.000000	101.362440
1253.000000	101.349949
1252.000000	101.342259
1251.000000	101.339733
1250.000000	101.337532
1249.000000	101.329451
1248.000000	101.313477
1247.000000	101.293456
1246.000000	101.275532
1245.000000	101.262974
1244.000000	101.254161
1243.000000	101.244723
1242.000000	101.231250
1241.000000	101.213385
1240.000000	101.192937
1239.000000	101.171417
1238.000000	101.149015
1237.000000	101.126177
1236.000000	101.105168
1235.000000	101.088475
1234.000000	101.075441
1233.000000	101.061747
1232.000000	101.042727
1231.000000	101.016523
1230.000000	100.984193
1229.000000	100.948048
1228.000000	100.910365
1227.000000	100.872548
1226.000000	100.834353
1225.000000	100.793954
1224.000000	100.749086
1223.000000	100.698014
1222.000000	100.639839
1221.000000	100.574742
1220.000000	100.503735
1219.000000	100.427439
1218.000000	100.345751
1217.000000	100.259872
1216.000000	100.173437
1215.000000	100.089010
1214.000000	100.003948
1213.000000	99.913118
1212.000000	99.816103
1211.000000	99.718587
1210.000000	99.625692
1209.000000	99.536973
1208.000000	99.448916
1207.000000	99.359101
1206.000000	99.267116
1205.000000	99.174650
1204.000000	99.085256
1203.000000	99.000676
1202.000000	98.917266
1201.000000	98.829979
1200.000000	98.739868
1199.000000	98.652787
1198.000000	98.570224
1197.000000	98.487091
1196.000000	98.399960
1195.000000	98.311711
1194.000000	98.225811
1193.000000	98.141026
1192.000000	98.054327
1191.000000	97.964695
1190.000000	97.872028
1189.000000	97.776692
1188.000000	97.682073
1187.000000	97.592815
1186.000000	97.508137
1185.000000	97.421251
1184.000000	97.327298
1183.000000	97.227370
1182.000000	97.123596
1181.000000	97.016036
1180.000000	96.906482
1179.000000	96.799062
1178.000000	96.693887
1177.000000	96.585768
1176.000000	96.472266
1175.000000	96.357153
1174.000000	96.242592
1173.000000	96.124206
1172.000000	95.998350
1171.000000	95.868674
1170.000000	95.740809
1169.000000	95.615480
1168.000000	95.491691
1167.000000	95.372859
1166.000000	95.266366
1165.000000	95.181121
1164.000000	95.127752
1163.000000	95.115032
1162.000000	95.141782
1161.000000	95.195593
1160.000000	95.260376
1159.000000	95.320192
1158.000000	95.357153
1157.000000	95.355824
1156.000000	95.313984
1155.000000	95.243570
1154.000000	95.158023
1153.000000	95.063120
1152.000000	94.961554
1151.000000	94.858270
1150.000000	94.756378
1149.000000	94.654143
1148.000000	94.550760
1147.000000	94.449583
1146.000000	94.351963
1145.000000	94.254114
1144.000000	94.154049
1143.000000	94.055444
1142.000000	93.960666
1141.000000	93.866038
1140.000000	93.767817
1139.000000	93.666718
1138.000000	93.563206
1137.000000	93.454895
1136.000000	93.342292
1135.000000	93.230628
1134.000000	93.122304
1133.000000	93.013776
1132.000000	92.902751
1131.000000	92.791283
1130.000000	92.679184
1129.000000	92.562447
1128.000000	92.441188
1127.000000	92.320704
1126.000000	92.201731
1125.000000	92.079088
1124.000000	91.953389
1123.000000	91.833453
1122.000000	91.722148
1121.000000	91.610534
1120.000000	91.492200
1119.000000	91.372968
1118.000000	91.259320
1117.000000	91.147469
1116.000000	91.031549
1115.000000	90.913418
1114.000000	90.796537
1113.000000	90.678697
1112.000000	90.558795
1111.000000	90.443006
1110.000000	90.337159
1109.000000	90.240097
1108.000000	90.149225
1107.000000	90.064697
1106.000000	89.983890
1105.000000	89.900516
1104.000000	89.813391
1103.000000	89.727382
1102.000000	89.642882
1101.000000	89.554737
1100.000000	89.464248
1099.000000	89.381119
1098.000000	89.308326
1097.000000	89.236802
1096.000000	89.159386
1095.000000	89.079131
1094.000000	88.999687
1093.000000	88.919203
1092.000000	88.838682
1091.000000	88.765141
1090.000000	88.701302
1089.000000	88.642323
1088.000000	88.586435
1087.000000	88.537881
1086.000000	88.496029
1085.000000	88.453042
1084.000000	88.405785
1083.000000	88.359058
1082.000000	88.314939
1081.000000	88.270655
1080.000000	88.228240
1079.000000	88.192442
1078.000000	88.156881
1077.000000	88.107176
1076.000000	88.040958
1075.000000	87.969883
1074.000000	87.897859
1073.000000	87.812245
1072.000000	87.701838
1071.000000	87.569124
1070.000000	87.419338
1069.000000	87.250476
1068.000000	87.060128
1067.000000	86.850845
1066.000000	86.624633
1065.000000	86.384164
1064.000000	86.142687
1063.000000	85.918769
1062.000000	85.716925
1061.000000	85.527257
1060.000000	85.346416
1059.000000	85.182160
1058.000000	85.034261
1057.000000	84.889524
1056.000000	84.740879
1055.000000	84.593091
1054.000000	84.443416
1053.000000	84.275003
1052.000000	84.078259
1051.000000	83.861870
1050.000000	83.634038
1049.000000	83.391411
1048.000000	83.135627
1047.000000	82.879588
1046.000000	82.627349
1045.000000	82.367095
1044.000000	82.092138
1043.000000	81.811486
1042.000000	81.533046
1041.000000	81.253631
1040.000000	80.973220
1039.000000	80.702532
1038.000000	80.448750
1037.000000	80.209435
1036.000000	79.986107
1035.000000	79.786460
1034.000000	79.607716
1033.000000	79.436181
1032.000000	79.269002
1031.000000	79.118211
1030.000000	78.988777
1029.000000	78.872266
1028.000000	78.766260
1027.000000	78.678496
1026.000000	78.605944
1025.000000	78.531614
1024.000000	78.449436
1023.000000	78.371963
1022.000000	78.306720
1021.000000	78.245096
1020.000000	78.180718
1019.000000	78.118309
1018.000000	78.057881
1017.000000	77.990412
1016.000000	77.915659
1015.000000	77.844796
1014.000000	77.780098
1013.000000	77.712118
1012.000000	77.641709
1011.000000	77.583315
1010.000000	77.540544
1009.000000	77.499559
1008.000000	77.452735
1007.000000	77.408281
1006.000000	77.370951
1005.000000	77.335007
1004.000000	77.302545
1003.000000	77.287031
1002.000000	77.291249
1001.000000	77.301937
1000.000000	77.312525
999.000000	77.330778
998.000000	77.358132
997.000000	77.383421
996.000000	77.404342
995.000000	77.433695
994.000000	77.476143
993.000000	77.519284
992.000000	77.556394
991.000000	77.598891
990.000000	77.657684
989.000000	77.730466
988.000000	77.815160
987.000000	77.917948
986.000000	78.040340
985.000000	78.175275
984.000000	78.322458
983.000000	78.490562
982.000000	78.678688
981.000000	78.873451
980.000000	79.070513
979.000000	79.281793
978.000000	79.515419
977.000000	79.765540
976.000000	80.027297
975.000000	80.304654
974.000000	80.597042
973.000000	80.894328
972.000000	81.191510
971.000000	81.494026
970.000000	81.803326
969.000000	82.111371
968.000000	82.414345
967.000000	82.718047
966.000000	83.024583
965.000000	83.326296
964.000000	83.617619
963.000000	83.901480
962.000000	84.180214
961.000000	84.450733
960.000000	84.711733
959.000000	84.965846
958.000000	85.212807
957.000000	85.449802
956.000000	85.678548
955.000000	85.901780
954.000000	86.113829
953.000000	86.306629
952.000000	86.484604
951.000000	86.661262
950.000000	86.840521
949.000000	87.013434
948.000000	87.173622
947.000000	87.323318
946.000000	87.463780
945.000000	87.592459
944.000000	87.711388
943.000000	87.827034
942.000000	87.940415
941.000000	88.047595
940.000000	88.149817
939.000000	88.252378
938.000000	88.354740
937.000000	88.453615
936.000000	88.553906
935.000000	88.663104
934.000000	88.776389
933.000000	88.882233
932.000000	88.981990
931.000000	89.088322
930.000000	89.204050
929.000000	89.319134
928.000000	89.430127
927.000000	89.545402
926.000000	89.667278
925.000000	89.785153
924.000000	89.891869
923.000000	89.992695
922.000000	90.092624
921.000000	90.187680
920.000000	90.274333
919.000000	90.355911
918.000000	90.435115
917.000000	90.511473
916.000000	90.589938
915.000000	90.679945
914.000000	90.781849
913.000000	90.886710
912.000000	90.994266
911.000000	91.118796
910.000000	91.271525
909.000000	91.448516
908.000000	91.640793
907.000000	91.845226
906.000000	92.060339
905.000000	92.282494
904.000000	92.512202
903.000000	92.754972
902.000000	93.010784
901.000000	93.270755
900.000000	93.527827
899.000000	93.782596
898.000000	94.035378
897.000000	94.281186
896.000000	94.515843
895.000000	94.739826
894.000000	94.953566
893.000000	95.156146
892.000000	95.350794
891.000000	95.544207
890.000000	95.737484
889.000000	95.923849
888.000000	96.097134
887.000000	96.256523
886.000000	96.402724
885.000000	96.537172
884.000000	96.666297
883.000000	96.798372
882.000000	96.933183
881.000000	97.061890
880.000000	97.179601
879.000000	97.291319
878.000000	97.404171
877.000000	97.521838
876.000000	97.648670
875.000000	97.789686
874.000000	97.941985
873.000000	98.093950
872.000000	98.237321
871.000000	98.374048
870.000000	98.508863
869.000000	98.641946
868.000000	98.772038
867.000000	98.900432
866.000000	99.028028
865.000000	99.152857
864.000000	99.273224
863.000000	99.389517
862.000000	99.501402
861.000000	99.607732
860.000000	99.710638
859.000000	99.814657
858.000000	99.919673
857.000000	100.019447
856.000000	100.109447
855.000000	100.191499
854.000000	100.268126
853.000000	100.337061
852.000000	100.395328
851.000000	100.445344
850.000000	100.492287
849.000000	100.536376
848.000000	100.571123
847.000000	100.589433
846.000000	100.590443
845.000000	100.580735
844.000000	100.568702
843.000000	100.556199
842.000000	100.535927
841.000000	100.499009
840.000000	100.444360
839.000000	100.378415
838.000000	100.307633
837.000000	100.235420
836.000000	100.165072
835.000000	100.099679
834.000000	100.038407
833.000000	99.978818
832.000000	99.925169
831.000000	99.889463
830.000000	99.881140
829.000000	99.898282
828.000000	99.929388
827.000000	99.960132
826.000000	99.980281
825.000000	99.990834
824.000000	100.003522
823.000000	100.025803
822.000000	100.048100
821.000000	100.054793
820.000000	100.044079
819.000000	100.025588
818.000000	100.000318
817.000000	99.954475
816.000000	99.874642
815.000000	99.759108
814.000000	99.610455
813.000000	99.425073
812.000000	99.194910
811.000000	98.912034
810.000000	98.565347
809.000000	98.140453
808.000000	97.632256
807.000000	97.054877
806.000000	96.432620
805.000000	95.785853
804.000000	95.134014
803.000000	94.507069
802.000000	93.942939
801.000000	93.474465
800.000000	93.123029
799.000000	92.897248
798.000000	92.790836
797.000000	92.787162
796.000000	92.869031
795.000000	93.017665
794.000000	93.204160
793.000000	93.394806
792.000000	93.567714
791.000000	93.716111
790.000000	93.835775
789.000000	93.918285
788.000000	93.955290
787.000000	93.938582
786.000000	93.856197
785.000000	93.700569
784.000000	93.483968
783.000000	93.237499
782.000000	92.993246
781.000000	92.776160
780.000000	92.612432
779.000000	92.529810
778.000000	92.542460
777.000000	92.644715
776.000000	92.821998
775.000000	93.057085
774.000000	93.325570
773.000000	93.599873
772.000000	93.862361
771.000000	94.105812
770.000000	94.321694
769.000000	94.499695
768.000000	94.639103
767.000000	94.748783
766.000000	94.834633
765.000000	94.898178
764.000000	94.948062
763.000000	94.999457
762.000000	95.058691
761.000000	95.120599
760.000000	95.184494
759.000000	95.260359
758.000000	95.354756
757.000000	95.462212
756.000000	95.574969
755.000000	95.689814
754.000000	95.801204
753.000000	95.900060
752.000000	95.985927
751.000000	96.070527
750.000000	96.163020
749.000000	96.259923
748.000000	96.354841
747.000000	96.450190
746.000000	96.553946
745.000000	96.671539
744.000000	96.804694
743.000000	96.950698
742.000000	97.099835
741.000000	97.242111
740.000000	97.379651
739.000000	97.524339
738.000000	97.680684
737.000000	97.839409
736.000000	97.989777
735.000000	98.127634
734.000000	98.248122
733.000000	98.342713
732.000000	98.410304
731.000000	98.461935
730.000000	98.507628
729.000000	98.546228
728.000000	98.574139
727.000000	98.596478
726.000000	98.623267
725.000000	98.660580
724.000000	98.711031
723.000000	98.776955
722.000000	98.857476
721.000000	98.946954
720.000000	99.040141
719.000000	99.134277
718.000000	99.224436
717.000000	99.304069
716.000000	99.372973
715.000000	99.437411
714.000000	99.499466
713.000000	99.553990
712.000000	99.598859
711.000000	99.638884
710.000000	99.674906
709.000000	99.698405
708.000000	99.703098
707.000000	99.693054
706.000000	99.672663
705.000000	99.635955
704.000000	99.572439
703.000000	99.475260
702.000000	99.335215
701.000000	99.135946
700.000000	98.868055
699.000000	98.545978
698.000000	98.205221
697.000000	97.887286
696.000000	97.632339
695.000000	97.476920
694.000000	97.443957
693.000000	97.531848
692.000000	97.713799
691.000000	97.945281
690.000000	98.176864
689.000000	98.371923
688.000000	98.520589
687.000000	98.634538
686.000000	98.725840
685.000000	98.799181
684.000000	98.864728
683.000000	98.941091
682.000000	99.036007
681.000000	99.134295
680.000000	99.215372
679.000000	99.276669
678.000000	99.330596
677.000000	99.386103
676.000000	99.442701
675.000000	99.496282
674.000000	99.544944
673.000000	99.589101
672.000000	99.630098
671.000000	99.671512
670.000000	99.722954
669.000000	99.803489
668.000000	99.922936
667.000000	100.043438
666.000000	100.119052
665.000000	100.148666
664.000000	100.150581
663.000000	100.145722
662.000000	100.151073
661.000000	100.170151
660.000000	100.192917
659.000000	100.205392
658.000000	100.199227
657.000000	100.177444
656.000000	100.149591
655.000000	100.117873
654.000000	100.075676
653.000000	100.023824
652.000000	99.981288
651.000000	99.969455
650.000000	99.985895
649.000000	100.007477
648.000000	100.021822
647.000000	100.040449
646.000000	100.078226
645.000000	100.135042
644.000000	100.204077
643.000000	100.281312
642.000000	100.358547
641.000000	100.424339
640.000000	100.479432
639.000000	100.537016
638.000000	100.602268
637.000000	100.666074
636.000000	100.724337
635.000000	100.785460
634.000000	100.849828
633.000000	100.900411
632.000000	100.925755
631.000000	100.938566
630.000000	100.965116
629.000000	101.028010
628.000000	101.141534
627.000000	101.299741
626.000000	101.455807
625.000000	101.542620
624.000000	101.535988
623.000000	101.481698
622.000000	101.447340
621.000000	101.454541
620.000000	101.478527
619.000000	101.492931
618.000000	101.486542
617.000000	101.456166
616.000000	101.413485
615.000000	101.387760
614.000000	101.393611
613.000000	101.409620
612.000000	101.413978
611.000000	101.419245
610.000000	101.443921
609.000000	101.469256
608.000000	101.458587
607.000000	101.405753
606.000000	101.339926
605.000000	101.294347
604.000000	101.296021
603.000000	101.365220
602.000000	101.485349
601.000000	101.588241
600.000000	101.604959
599.000000	101.526286
598.000000	101.394831
597.000000	101.246740
596.000000	101.097411
595.000000	100.978761
594.000000	100.936443
593.000000	100.977911
592.000000	101.058842
591.000000	101.127563
590.000000	101.165943
589.000000	101.187560
588.000000	101.215171
587.000000	101.262452
586.000000	101.316870
585.000000	101.345068
584.000000	101.335062
583.000000	101.317986
582.000000	101.324658
581.000000	101.336629
580.000000	101.318298
579.000000	101.282983
578.000000	101.284147
577.000000	101.348405
576.000000	101.455321
575.000000	101.562938
574.000000	101.620894
573.000000	101.586783
572.000000	101.462173
571.000000	101.301687
570.000000	101.152359
569.000000	100.995844
568.000000	100.800959
567.000000	100.602313
566.000000	100.457986
565.000000	100.356310
564.000000	100.245522
563.000000	100.121504
562.000000	100.012242
561.000000	99.899064
560.000000	99.733352
559.000000	99.521359
558.000000	99.319476
557.000000	99.143810
556.000000	98.955345
555.000000	98.735998
554.000000	98.524612
553.000000	98.373267
552.000000	98.309533
551.000000	98.331421
550.000000	98.395938
