PE IR       SUBTECH     SPECTRUM    ASCII       PEDS        4.00        
   -1
BH1 8-1 1 5_1.asc
24/05/17
15:16:21.00
24/05/17
15:17:12.00
Administrator
?品 023 用? Administrator 日期 Friday, May 17 2024
550.000000
#HDR
-1
-1
#GR
cm-1
%T
1.0
0.0
4000.000000
-1.000000
3451
8
100.132829
85.065572
#DATA
4000.000000	99.953365
3999.000000	99.953301
3998.000000	99.951215
3997.000000	99.946487
3996.000000	99.940478
3995.000000	99.935367
3994.000000	99.932576
3993.000000	99.932589
3992.000000	99.935384
3991.000000	99.940297
3990.000000	99.945524
3989.000000	99.948710
3988.000000	99.948758
3987.000000	99.946775
3986.000000	99.945228
3985.000000	99.945733
3984.000000	99.947929
3983.000000	99.950514
3982.000000	99.952803
3981.000000	99.954797
3980.000000	99.956103
3979.000000	99.955659
3978.000000	99.952826
3977.000000	99.948373
3976.000000	99.944177
3975.000000	99.941737
3974.000000	99.940994
3973.000000	99.940613
3972.000000	99.939326
3971.000000	99.936993
3970.000000	99.934509
3969.000000	99.932864
3968.000000	99.932318
3967.000000	99.932379
3966.000000	99.932358
3965.000000	99.931933
3964.000000	99.931320
3963.000000	99.930936
3962.000000	99.930877
3961.000000	99.930847
3960.000000	99.930644
3959.000000	99.930523
3958.000000	99.930827
3957.000000	99.931384
3956.000000	99.931581
3955.000000	99.931125
3954.000000	99.930508
3953.000000	99.930541
3952.000000	99.931625
3951.000000	99.933567
3950.000000	99.935830
3949.000000	99.937690
3948.000000	99.938346
3947.000000	99.937365
3946.000000	99.935274
3945.000000	99.933539
3944.000000	99.933402
3943.000000	99.934730
3942.000000	99.936121
3941.000000	99.936288
3940.000000	99.935126
3939.000000	99.933442
3938.000000	99.931995
3937.000000	99.930832
3936.000000	99.929595
3935.000000	99.928185
3934.000000	99.927088
3933.000000	99.927006
3932.000000	99.928254
3931.000000	99.930526
3930.000000	99.933088
3929.000000	99.935141
3928.000000	99.936151
3927.000000	99.936058
3926.000000	99.935190
3925.000000	99.933902
3924.000000	99.932433
3923.000000	99.931015
3922.000000	99.929893
3921.000000	99.929240
3920.000000	99.929063
3919.000000	99.929203
3918.000000	99.929339
3917.000000	99.929122
3916.000000	99.928522
3915.000000	99.928031
3914.000000	99.928109
3913.000000	99.928585
3912.000000	99.928779
3911.000000	99.928380
3910.000000	99.927861
3909.000000	99.927769
3908.000000	99.928023
3907.000000	99.928050
3906.000000	99.927488
3905.000000	99.926339
3904.000000	99.924618
3903.000000	99.922426
3902.000000	99.920318
3901.000000	99.919097
3900.000000	99.919005
3899.000000	99.919501
3898.000000	99.919986
3897.000000	99.920433
3896.000000	99.921015
3895.000000	99.921593
3894.000000	99.921717
3893.000000	99.921129
3892.000000	99.920017
3891.000000	99.918781
3890.000000	99.917644
3889.000000	99.916542
3888.000000	99.915481
3887.000000	99.914573
3886.000000	99.913618
3885.000000	99.912318
3884.000000	99.910825
3883.000000	99.909738
3882.000000	99.909654
3881.000000	99.910643
3880.000000	99.912068
3879.000000	99.913079
3878.000000	99.913201
3877.000000	99.912482
3876.000000	99.911361
3875.000000	99.910297
3874.000000	99.909542
3873.000000	99.909330
3872.000000	99.910008
3871.000000	99.911540
3870.000000	99.912972
3869.000000	99.913361
3868.000000	99.912924
3867.000000	99.912663
3866.000000	99.913134
3865.000000	99.913777
3864.000000	99.913662
3863.000000	99.912724
3862.000000	99.911707
3861.000000	99.911246
3860.000000	99.911459
3859.000000	99.912133
3858.000000	99.912862
3857.000000	99.913173
3856.000000	99.912962
3855.000000	99.912511
3854.000000	99.911363
3853.000000	99.909083
3852.000000	99.906884
3851.000000	99.906103
3850.000000	99.906886
3849.000000	99.908640
3848.000000	99.910635
3847.000000	99.912468
3846.000000	99.914026
3845.000000	99.915218
3844.000000	99.915809
3843.000000	99.915575
3842.000000	99.914582
3841.000000	99.913271
3840.000000	99.912106
3839.000000	99.911139
3838.000000	99.910093
3837.000000	99.908865
3836.000000	99.907787
3835.000000	99.907322
3834.000000	99.907653
3833.000000	99.908497
3832.000000	99.909219
3831.000000	99.909369
3830.000000	99.909115
3829.000000	99.909069
3828.000000	99.909641
3827.000000	99.910501
3826.000000	99.910813
3825.000000	99.910220
3824.000000	99.909525
3823.000000	99.910219
3822.000000	99.912437
3821.000000	99.914008
3820.000000	99.913113
3819.000000	99.910027
3818.000000	99.906649
3817.000000	99.905033
3816.000000	99.905560
3815.000000	99.907220
3814.000000	99.909332
3813.000000	99.911932
3812.000000	99.914909
3811.000000	99.917634
3810.000000	99.919550
3809.000000	99.920901
3808.000000	99.922143
3807.000000	99.922944
3806.000000	99.922721
3805.000000	99.921435
3804.000000	99.919560
3803.000000	99.917823
3802.000000	99.916240
3801.000000	99.914515
3800.000000	99.913428
3799.000000	99.914064
3798.000000	99.916704
3797.000000	99.920594
3796.000000	99.924429
3795.000000	99.927384
3794.000000	99.929340
3793.000000	99.930205
3792.000000	99.929685
3791.000000	99.927878
3790.000000	99.925683
3789.000000	99.924288
3788.000000	99.924327
3787.000000	99.925565
3786.000000	99.927074
3785.000000	99.927703
3784.000000	99.926757
3783.000000	99.924634
3782.000000	99.922757
3781.000000	99.922536
3780.000000	99.923999
3779.000000	99.925816
3778.000000	99.927067
3777.000000	99.928229
3776.000000	99.930077
3775.000000	99.932148
3774.000000	99.932868
3773.000000	99.931394
3772.000000	99.928738
3771.000000	99.926612
3770.000000	99.925452
3769.000000	99.924398
3768.000000	99.922867
3767.000000	99.921302
3766.000000	99.920376
3765.000000	99.920082
3764.000000	99.920107
3763.000000	99.920891
3762.000000	99.923271
3761.000000	99.926910
3760.000000	99.929893
3759.000000	99.931032
3758.000000	99.931334
3757.000000	99.931953
3756.000000	99.932294
3755.000000	99.931055
3754.000000	99.928079
3753.000000	99.924377
3752.000000	99.920685
3751.000000	99.917145
3750.000000	99.914176
3749.000000	99.911754
3748.000000	99.908726
3747.000000	99.904933
3746.000000	99.903288
3745.000000	99.904578
3744.000000	99.904869
3743.000000	99.902972
3742.000000	99.901200
3741.000000	99.900408
3740.000000	99.899286
3739.000000	99.896792
3738.000000	99.894100
3737.000000	99.892456
3736.000000	99.890707
3735.000000	99.887780
3734.000000	99.885463
3733.000000	99.885717
3732.000000	99.887669
3731.000000	99.889364
3730.000000	99.890548
3729.000000	99.892385
3728.000000	99.895020
3727.000000	99.895985
3726.000000	99.892484
3725.000000	99.884990
3724.000000	99.877145
3723.000000	99.872320
3722.000000	99.871076
3721.000000	99.871854
3720.000000	99.872843
3719.000000	99.873056
3718.000000	99.872069
3717.000000	99.869351
3716.000000	99.864634
3715.000000	99.858730
3714.000000	99.853412
3713.000000	99.849602
3712.000000	99.845553
3711.000000	99.838698
3710.000000	99.829126
3709.000000	99.819667
3708.000000	99.812988
3707.000000	99.809658
3706.000000	99.808598
3705.000000	99.808612
3704.000000	99.809083
3703.000000	99.809131
3702.000000	99.807102
3701.000000	99.802009
3700.000000	99.795097
3699.000000	99.788982
3698.000000	99.785148
3697.000000	99.782188
3696.000000	99.777023
3695.000000	99.768317
3694.000000	99.758062
3693.000000	99.749913
3692.000000	99.746140
3691.000000	99.745944
3690.000000	99.745695
3689.000000	99.741773
3688.000000	99.734581
3687.000000	99.728065
3686.000000	99.725228
3685.000000	99.725468
3684.000000	99.725427
3683.000000	99.722023
3682.000000	99.715500
3681.000000	99.708448
3680.000000	99.701675
3679.000000	99.693083
3678.000000	99.681793
3677.000000	99.670327
3676.000000	99.659009
3675.000000	99.645407
3674.000000	99.629895
3673.000000	99.614911
3672.000000	99.603272
3671.000000	99.596261
3670.000000	99.590987
3669.000000	99.584364
3668.000000	99.576946
3667.000000	99.570374
3666.000000	99.565054
3665.000000	99.560433
3664.000000	99.555875
3663.000000	99.550995
3662.000000	99.545403
3661.000000	99.538204
3660.000000	99.528531
3659.000000	99.516711
3658.000000	99.504522
3657.000000	99.493129
3656.000000	99.481862
3655.000000	99.470187
3654.000000	99.458692
3653.000000	99.447952
3652.000000	99.437202
3651.000000	99.423069
3650.000000	99.402301
3649.000000	99.379172
3648.000000	99.363425
3647.000000	99.359493
3646.000000	99.363831
3645.000000	99.369881
3644.000000	99.372313
3643.000000	99.368547
3642.000000	99.359383
3641.000000	99.348797
3640.000000	99.341508
3639.000000	99.338826
3638.000000	99.337638
3637.000000	99.334256
3636.000000	99.328530
3635.000000	99.322893
3634.000000	99.317746
3633.000000	99.310228
3632.000000	99.298109
3631.000000	99.284205
3630.000000	99.272954
3629.000000	99.263176
3628.000000	99.252891
3627.000000	99.245070
3626.000000	99.242631
3625.000000	99.244068
3624.000000	99.244533
3623.000000	99.240205
3622.000000	99.232742
3621.000000	99.228668
3620.000000	99.233051
3619.000000	99.244224
3618.000000	99.255882
3617.000000	99.263308
3616.000000	99.266524
3615.000000	99.268579
3614.000000	99.271666
3613.000000	99.274926
3612.000000	99.276006
3611.000000	99.274284
3610.000000	99.271872
3609.000000	99.271392
3608.000000	99.273557
3607.000000	99.277676
3606.000000	99.283584
3605.000000	99.291741
3604.000000	99.301697
3603.000000	99.310938
3602.000000	99.316087
3601.000000	99.315443
3600.000000	99.310630
3599.000000	99.305192
3598.000000	99.301828
3597.000000	99.301587
3596.000000	99.304924
3595.000000	99.311617
3594.000000	99.319596
3593.000000	99.325539
3592.000000	99.327111
3591.000000	99.324401
3590.000000	99.319319
3589.000000	99.313670
3588.000000	99.308257
3587.000000	99.304370
3586.000000	99.303775
3585.000000	99.306143
3584.000000	99.308731
3583.000000	99.308866
3582.000000	99.306166
3581.000000	99.302490
3580.000000	99.299989
3579.000000	99.299033
3578.000000	99.298038
3577.000000	99.295434
3576.000000	99.291632
3575.000000	99.288899
3574.000000	99.289153
3573.000000	99.291925
3572.000000	99.294507
3571.000000	99.294013
3570.000000	99.289237
3569.000000	99.280821
3568.000000	99.270540
3567.000000	99.261062
3566.000000	99.255052
3565.000000	99.252977
3564.000000	99.252806
3563.000000	99.252143
3562.000000	99.250147
3561.000000	99.247759
3560.000000	99.246524
3559.000000	99.247121
3558.000000	99.248653
3557.000000	99.249057
3556.000000	99.246353
3555.000000	99.239917
3554.000000	99.230869
3553.000000	99.221153
3552.000000	99.212309
3551.000000	99.205238
3550.000000	99.200692
3549.000000	99.199249
3548.000000	99.200741
3547.000000	99.204306
3546.000000	99.209133
3545.000000	99.214657
3544.000000	99.219841
3543.000000	99.223165
3542.000000	99.223843
3541.000000	99.222514
3540.000000	99.220520
3539.000000	99.218657
3538.000000	99.216831
3537.000000	99.214536
3536.000000	99.211370
3535.000000	99.207309
3534.000000	99.202809
3533.000000	99.198578
3532.000000	99.195033
3531.000000	99.192065
3530.000000	99.189367
3529.000000	99.186961
3528.000000	99.185227
3527.000000	99.184474
3526.000000	99.184620
3525.000000	99.185210
3524.000000	99.185660
3523.000000	99.185699
3522.000000	99.185756
3521.000000	99.186708
3520.000000	99.189037
3519.000000	99.192120
3518.000000	99.194424
3517.000000	99.194567
3516.000000	99.192228
3515.000000	99.188158
3514.000000	99.183595
3513.000000	99.179687
3512.000000	99.177205
3511.000000	99.176344
3510.000000	99.176541
3509.000000	99.176664
3508.000000	99.175739
3507.000000	99.173728
3506.000000	99.171507
3505.000000	99.170075
3504.000000	99.169809
3503.000000	99.170478
3502.000000	99.171695
3501.000000	99.172966
3500.000000	99.173392
3499.000000	99.172019
3498.000000	99.168826
3497.000000	99.165225
3496.000000	99.163102
3495.000000	99.163088
3494.000000	99.164030
3493.000000	99.164030
3492.000000	99.162060
3491.000000	99.158462
3490.000000	99.154435
3489.000000	99.151094
3488.000000	99.148775
3487.000000	99.147048
3486.000000	99.145244
3485.000000	99.143067
3484.000000	99.140722
3483.000000	99.138512
3482.000000	99.136431
3481.000000	99.134213
3480.000000	99.131699
3479.000000	99.129038
3478.000000	99.126536
3477.000000	99.124411
3476.000000	99.122668
3475.000000	99.121114
3474.000000	99.119426
3473.000000	99.117289
3472.000000	99.114603
3471.000000	99.111677
3470.000000	99.109156
3469.000000	99.107529
3468.000000	99.106670
3467.000000	99.105840
3466.000000	99.104318
3465.000000	99.102051
3464.000000	99.099569
3463.000000	99.097355
3462.000000	99.095329
3461.000000	99.093087
3460.000000	99.090478
3459.000000	99.087771
3458.000000	99.085311
3457.000000	99.083172
3456.000000	99.081164
3455.000000	99.079047
3454.000000	99.076733
3453.000000	99.074313
3452.000000	99.071938
3451.000000	99.069639
3450.000000	99.067294
3449.000000	99.064794
3448.000000	99.062248
3447.000000	99.059963
3446.000000	99.058118
3445.000000	99.056521
3444.000000	99.054800
3443.000000	99.052730
3442.000000	99.050271
3441.000000	99.047416
3440.000000	99.044168
3439.000000	99.040690
3438.000000	99.037372
3437.000000	99.034671
3436.000000	99.032867
3435.000000	99.031926
3434.000000	99.031460
3433.000000	99.030829
3432.000000	99.029367
3431.000000	99.026684
3430.000000	99.022932
3429.000000	99.018793
3428.000000	99.014970
3427.000000	99.011575
3426.000000	99.008156
3425.000000	99.004504
3424.000000	99.001324
3423.000000	98.999643
3422.000000	98.999417
3421.000000	98.999201
3420.000000	98.997576
3419.000000	98.994638
3418.000000	98.991663
3417.000000	98.989568
3416.000000	98.988160
3415.000000	98.986703
3414.000000	98.984636
3413.000000	98.981660
3412.000000	98.977733
3411.000000	98.973480
3410.000000	98.970285
3409.000000	98.969403
3408.000000	98.970855
3407.000000	98.973254
3406.000000	98.974737
3405.000000	98.974194
3404.000000	98.971811
3403.000000	98.968801
3402.000000	98.966601
3401.000000	98.965947
3400.000000	98.966501
3399.000000	98.967255
3398.000000	98.967402
3397.000000	98.967021
3396.000000	98.966934
3395.000000	98.967848
3394.000000	98.969513
3393.000000	98.970723
3392.000000	98.970331
3391.000000	98.968344
3390.000000	98.965966
3389.000000	98.964556
3388.000000	98.964594
3387.000000	98.965626
3386.000000	98.966939
3385.000000	98.968168
3384.000000	98.969334
3383.000000	98.970465
3382.000000	98.971326
3381.000000	98.971580
3380.000000	98.971270
3379.000000	98.971089
3378.000000	98.972000
3377.000000	98.974425
3376.000000	98.977745
3375.000000	98.980615
3374.000000	98.981879
3373.000000	98.981270
3372.000000	98.979445
3371.000000	98.977502
3370.000000	98.976250
3369.000000	98.975857
3368.000000	98.976057
3367.000000	98.976613
3366.000000	98.977507
3365.000000	98.978657
3364.000000	98.979611
3363.000000	98.979789
3362.000000	98.979139
3361.000000	98.978434
3360.000000	98.978637
3359.000000	98.979901
3358.000000	98.981289
3357.000000	98.981630
3356.000000	98.980760
3355.000000	98.979822
3354.000000	98.980219
3353.000000	98.982408
3352.000000	98.985748
3351.000000	98.989199
3350.000000	98.992075
3349.000000	98.994136
3348.000000	98.995373
3347.000000	98.995933
3346.000000	98.996068
3345.000000	98.995927
3344.000000	98.995438
3343.000000	98.994583
3342.000000	98.993797
3341.000000	98.993845
3340.000000	98.995228
3339.000000	98.997785
3338.000000	99.000921
3337.000000	99.004112
3336.000000	99.007089
3335.000000	99.009682
3334.000000	99.011774
3333.000000	99.013402
3332.000000	99.014611
3331.000000	99.015154
3330.000000	99.014573
3329.000000	99.012786
3328.000000	99.010633
3327.000000	99.009617
3326.000000	99.010797
3325.000000	99.013987
3324.000000	99.017892
3323.000000	99.021060
3322.000000	99.022852
3321.000000	99.023575
3320.000000	99.023969
3319.000000	99.024629
3318.000000	99.025768
3317.000000	99.027361
3316.000000	99.029307
3315.000000	99.031367
3314.000000	99.033053
3313.000000	99.033877
3312.000000	99.033910
3311.000000	99.033985
3310.000000	99.035009
3309.000000	99.037026
3308.000000	99.039276
3307.000000	99.041286
3306.000000	99.043595
3305.000000	99.047060
3304.000000	99.051622
3303.000000	99.056190
3302.000000	99.059814
3301.000000	99.062623
3300.000000	99.065288
3299.000000	99.067823
3298.000000	99.069364
3297.000000	99.069159
3296.000000	99.067372
3295.000000	99.064917
3294.000000	99.062906
3293.000000	99.062381
3292.000000	99.064056
3291.000000	99.067799
3290.000000	99.072410
3289.000000	99.076380
3288.000000	99.079128
3287.000000	99.081240
3286.000000	99.083526
3285.000000	99.086089
3284.000000	99.088371
3283.000000	99.089847
3282.000000	99.090513
3281.000000	99.090909
3280.000000	99.091814
3279.000000	99.093699
3278.000000	99.096321
3277.000000	99.098939
3276.000000	99.101039
3275.000000	99.102740
3274.000000	99.104395
3273.000000	99.105982
3272.000000	99.107093
3271.000000	99.107444
3270.000000	99.107297
3269.000000	99.107403
3268.000000	99.108557
3267.000000	99.111046
3266.000000	99.114417
3265.000000	99.117865
3264.000000	99.120990
3263.000000	99.123982
3262.000000	99.126950
3261.000000	99.129381
3260.000000	99.130637
3259.000000	99.130710
3258.000000	99.130156
3257.000000	99.129483
3256.000000	99.128952
3255.000000	99.128951
3254.000000	99.130009
3253.000000	99.132211
3252.000000	99.134920
3251.000000	99.137311
3250.000000	99.139103
3249.000000	99.140586
3248.000000	99.142075
3247.000000	99.143504
3246.000000	99.144517
3245.000000	99.144948
3244.000000	99.145249
3243.000000	99.146351
3242.000000	99.148854
3241.000000	99.152440
3240.000000	99.155994
3239.000000	99.158491
3238.000000	99.159734
3237.000000	99.160226
3236.000000	99.160670
3235.000000	99.161532
3234.000000	99.162941
3233.000000	99.164793
3232.000000	99.166903
3231.000000	99.169170
3230.000000	99.171579
3229.000000	99.174033
3228.000000	99.176299
3227.000000	99.178262
3226.000000	99.180120
3225.000000	99.182178
3224.000000	99.184494
3223.000000	99.186898
3222.000000	99.189306
3221.000000	99.191750
3220.000000	99.194029
3219.000000	99.195636
3218.000000	99.196265
3217.000000	99.196292
3216.000000	99.196641
3215.000000	99.197977
3214.000000	99.200201
3213.000000	99.202737
3212.000000	99.205237
3211.000000	99.207819
3210.000000	99.210495
3209.000000	99.212749
3208.000000	99.214022
3207.000000	99.214542
3206.000000	99.215396
3205.000000	99.217462
3204.000000	99.220565
3203.000000	99.223714
3202.000000	99.226079
3201.000000	99.227597
3200.000000	99.228723
3199.000000	99.230013
3198.000000	99.231879
3197.000000	99.234489
3196.000000	99.237703
3195.000000	99.241161
3194.000000	99.244557
3193.000000	99.247725
3192.000000	99.250503
3191.000000	99.252736
3190.000000	99.254474
3189.000000	99.256030
3188.000000	99.257760
3187.000000	99.259834
3186.000000	99.262250
3185.000000	99.264956
3184.000000	99.267893
3183.000000	99.270965
3182.000000	99.274067
3181.000000	99.277167
3180.000000	99.280268
3179.000000	99.283280
3178.000000	99.285932
3177.000000	99.287959
3176.000000	99.289428
3175.000000	99.290847
3174.000000	99.292763
3173.000000	99.295202
3172.000000	99.297738
3171.000000	99.300101
3170.000000	99.302467
3169.000000	99.305001
3168.000000	99.307384
3167.000000	99.309131
3166.000000	99.310324
3165.000000	99.311704
3164.000000	99.313884
3163.000000	99.316732
3162.000000	99.319606
3161.000000	99.322021
3160.000000	99.323967
3159.000000	99.325654
3158.000000	99.327248
3157.000000	99.328888
3156.000000	99.330796
3155.000000	99.333171
3154.000000	99.335942
3153.000000	99.338705
3152.000000	99.341054
3151.000000	99.342970
3150.000000	99.344792
3149.000000	99.346820
3148.000000	99.349003
3147.000000	99.351125
3146.000000	99.353156
3145.000000	99.355281
3144.000000	99.357652
3143.000000	99.360233
3142.000000	99.362842
3141.000000	99.365273
3140.000000	99.367443
3139.000000	99.369441
3138.000000	99.371436
3137.000000	99.373477
3136.000000	99.375457
3135.000000	99.377310
3134.000000	99.379124
3133.000000	99.381034
3132.000000	99.383058
3131.000000	99.385103
3130.000000	99.387108
3129.000000	99.389111
3128.000000	99.391172
3127.000000	99.393276
3126.000000	99.395343
3125.000000	99.397304
3124.000000	99.399141
3123.000000	99.400895
3122.000000	99.402656
3121.000000	99.404513
3120.000000	99.406483
3119.000000	99.408520
3118.000000	99.410558
3117.000000	99.412569
3116.000000	99.414528
3115.000000	99.416387
3114.000000	99.418131
3113.000000	99.419821
3112.000000	99.421531
3111.000000	99.423260
3110.000000	99.424961
3109.000000	99.426625
3108.000000	99.428295
3107.000000	99.430005
3106.000000	99.431741
3105.000000	99.433460
3104.000000	99.435126
3103.000000	99.436734
3102.000000	99.438302
3101.000000	99.439860
3100.000000	99.441428
3099.000000	99.443008
3098.000000	99.444595
3097.000000	99.446186
3096.000000	99.447779
3095.000000	99.449364
3094.000000	99.450931
3093.000000	99.452480
3092.000000	99.454021
3091.000000	99.455570
3090.000000	99.457136
3089.000000	99.458722
3088.000000	99.460322
3087.000000	99.461928
3086.000000	99.463527
3085.000000	99.465121
3084.000000	99.466735
3083.000000	99.468387
3082.000000	99.470078
3081.000000	99.471793
3080.000000	99.473515
3079.000000	99.475237
3078.000000	99.476957
3077.000000	99.478664
3076.000000	99.480340
3075.000000	99.481984
3074.000000	99.483615
3073.000000	99.485268
3072.000000	99.486961
3071.000000	99.488698
3070.000000	99.490452
3069.000000	99.492176
3068.000000	99.493832
3067.000000	99.495419
3066.000000	99.496943
3065.000000	99.498382
3064.000000	99.499722
3063.000000	99.501098
3062.000000	99.502761
3061.000000	99.504807
3060.000000	99.506904
3059.000000	99.508565
3058.000000	99.509733
3057.000000	99.510950
3056.000000	99.512771
3055.000000	99.515124
3054.000000	99.517418
3053.000000	99.519259
3052.000000	99.520800
3051.000000	99.522357
3050.000000	99.523962
3049.000000	99.525457
3048.000000	99.526847
3047.000000	99.528328
3046.000000	99.530049
3045.000000	99.532020
3044.000000	99.534245
3043.000000	99.536880
3042.000000	99.540158
3041.000000	99.544076
3040.000000	99.548099
3039.000000	99.551363
3038.000000	99.553306
3037.000000	99.554035
3036.000000	99.554016
3035.000000	99.553505
3034.000000	99.552530
3033.000000	99.551358
3032.000000	99.550566
3031.000000	99.550494
3030.000000	99.550956
3029.000000	99.551626
3028.000000	99.552455
3027.000000	99.553587
3026.000000	99.555112
3025.000000	99.557149
3024.000000	99.559839
3023.000000	99.562885
3022.000000	99.565379
3021.000000	99.566657
3020.000000	99.567259
3019.000000	99.568552
3018.000000	99.571398
3017.000000	99.575670
3016.000000	99.580965
3015.000000	99.586942
3014.000000	99.592607
3013.000000	99.596129
3012.000000	99.596238
3011.000000	99.593593
3010.000000	99.590466
3009.000000	99.589273
3008.000000	99.591483
3007.000000	99.597029
3006.000000	99.603915
3005.000000	99.609102
3004.000000	99.610913
3003.000000	99.610302
3002.000000	99.609043
3001.000000	99.607327
3000.000000	99.604499
2999.000000	99.601640
2998.000000	99.601268
2997.000000	99.604072
2996.000000	99.607736
2995.000000	99.609870
2994.000000	99.610625
2993.000000	99.611296
2992.000000	99.611714
2991.000000	99.610590
2990.000000	99.607624
2989.000000	99.603665
2988.000000	99.599074
2987.000000	99.593428
2986.000000	99.586940
2985.000000	99.581023
2984.000000	99.577121
2983.000000	99.575675
2982.000000	99.576241
2981.000000	99.577836
2980.000000	99.579175
2979.000000	99.579288
2978.000000	99.578201
2977.000000	99.576893
2976.000000	99.576827
2975.000000	99.579550
2974.000000	99.585951
2973.000000	99.595063
2972.000000	99.604091
2971.000000	99.610962
2970.000000	99.616677
2969.000000	99.623965
2968.000000	99.633754
2967.000000	99.644009
2966.000000	99.652008
2965.000000	99.656689
2964.000000	99.658752
2963.000000	99.659860
2962.000000	99.662216
2961.000000	99.667563
2960.000000	99.675617
2959.000000	99.684008
2958.000000	99.690308
2957.000000	99.693509
2956.000000	99.693344
2955.000000	99.689536
2954.000000	99.682935
2953.000000	99.676655
2952.000000	99.674533
2951.000000	99.678021
2950.000000	99.685156
2949.000000	99.692780
2948.000000	99.699640
2947.000000	99.707417
2946.000000	99.718853
2945.000000	99.734767
2944.000000	99.752725
2943.000000	99.768897
2942.000000	99.781529
2941.000000	99.792446
2940.000000	99.804987
2939.000000	99.820379
2938.000000	99.836026
2937.000000	99.847390
2936.000000	99.852191
2935.000000	99.853476
2934.000000	99.858238
2933.000000	99.871841
2932.000000	99.893062
2931.000000	99.914991
2930.000000	99.930969
2929.000000	99.939379
2928.000000	99.943313
2927.000000	99.946846
2926.000000	99.951925
2925.000000	99.957697
2924.000000	99.961868
2923.000000	99.962722
2922.000000	99.959975
2921.000000	99.953512
2920.000000	99.941779
2919.000000	99.922784
2918.000000	99.897149
2917.000000	99.869225
2916.000000	99.844389
2915.000000	99.825545
2914.000000	99.812271
2913.000000	99.802201
2912.000000	99.792693
2911.000000	99.782321
2910.000000	99.771767
2909.000000	99.762732
2908.000000	99.755498
2907.000000	99.748631
2906.000000	99.741812
2905.000000	99.737422
2904.000000	99.737459
2903.000000	99.739639
2902.000000	99.738827
2901.000000	99.732650
2900.000000	99.723782
2899.000000	99.716311
2898.000000	99.711789
2897.000000	99.709716
2896.000000	99.709856
2895.000000	99.711990
2894.000000	99.714343
2893.000000	99.714645
2892.000000	99.712973
2891.000000	99.711719
2890.000000	99.712031
2889.000000	99.711893
2888.000000	99.708893
2887.000000	99.703857
2886.000000	99.700085
2885.000000	99.699290
2884.000000	99.699745
2883.000000	99.698656
2882.000000	99.695323
2881.000000	99.691483
2880.000000	99.689261
2879.000000	99.689478
2878.000000	99.691572
2877.000000	99.694448
2876.000000	99.697483
2875.000000	99.701084
2874.000000	99.706073
2873.000000	99.712256
2872.000000	99.718000
2871.000000	99.721757
2870.000000	99.723858
2869.000000	99.726329
2868.000000	99.731032
2867.000000	99.738283
2866.000000	99.747007
2865.000000	99.755672
2864.000000	99.763163
2863.000000	99.769359
2862.000000	99.775271
2861.000000	99.782588
2860.000000	99.792966
2859.000000	99.807387
2858.000000	99.825378
2857.000000	99.844448
2856.000000	99.860972
2855.000000	99.872514
2854.000000	99.879212
2853.000000	99.882435
2852.000000	99.882369
2851.000000	99.877529
2850.000000	99.866502
2849.000000	99.849427
2848.000000	99.827899
2847.000000	99.804427
2846.000000	99.782325
2845.000000	99.765154
2844.000000	99.754942
2843.000000	99.750390
2842.000000	99.747092
2841.000000	99.740488
2840.000000	99.729690
2839.000000	99.718578
2838.000000	99.712385
2837.000000	99.712673
2836.000000	99.715999
2835.000000	99.717619
2834.000000	99.715976
2833.000000	99.713251
2832.000000	99.712544
2831.000000	99.715470
2830.000000	99.721634
2829.000000	99.728950
2828.000000	99.734551
2827.000000	99.736557
2826.000000	99.735187
2825.000000	99.731741
2824.000000	99.727065
2823.000000	99.721888
2822.000000	99.718018
2821.000000	99.717578
2820.000000	99.720964
2819.000000	99.726619
2818.000000	99.732675
2817.000000	99.737644
2816.000000	99.739837
2815.000000	99.738015
2814.000000	99.733097
2813.000000	99.727752
2812.000000	99.723596
2811.000000	99.720024
2810.000000	99.716323
2809.000000	99.713494
2808.000000	99.712955
2807.000000	99.714463
2806.000000	99.716432
2805.000000	99.717854
2804.000000	99.719074
2803.000000	99.720857
2802.000000	99.723437
2801.000000	99.726457
2800.000000	99.729275
2799.000000	99.731257
2798.000000	99.732135
2797.000000	99.732214
2796.000000	99.732135
2795.000000	99.732502
2794.000000	99.733730
2793.000000	99.735903
2792.000000	99.738566
2791.000000	99.740832
2790.000000	99.741998
2789.000000	99.741971
2788.000000	99.741136
2787.000000	99.740043
2786.000000	99.739252
2785.000000	99.739209
2784.000000	99.740042
2783.000000	99.741534
2782.000000	99.743355
2781.000000	99.745201
2780.000000	99.746712
2779.000000	99.747517
2778.000000	99.747552
2777.000000	99.747224
2776.000000	99.747093
2775.000000	99.747437
2774.000000	99.748170
2773.000000	99.749077
2772.000000	99.749981
2771.000000	99.750766
2770.000000	99.751391
2769.000000	99.751895
2768.000000	99.752383
2767.000000	99.752959
2766.000000	99.753675
2765.000000	99.754504
2764.000000	99.755370
2763.000000	99.756175
2762.000000	99.756841
2761.000000	99.757357
2760.000000	99.757769
2759.000000	99.758140
2758.000000	99.758517
2757.000000	99.758925
2756.000000	99.759379
2755.000000	99.759879
2754.000000	99.760407
2753.000000	99.760940
2752.000000	99.761455
2751.000000	99.761952
2750.000000	99.762464
2749.000000	99.763020
2748.000000	99.763593
2747.000000	99.764124
2746.000000	99.764599
2745.000000	99.765087
2744.000000	99.765672
2743.000000	99.766363
2742.000000	99.767083
2741.000000	99.767739
2740.000000	99.768278
2739.000000	99.768689
2738.000000	99.769017
2737.000000	99.769382
2736.000000	99.769898
2735.000000	99.770587
2734.000000	99.771361
2733.000000	99.772108
2732.000000	99.772787
2731.000000	99.773425
2730.000000	99.774054
2729.000000	99.774669
2728.000000	99.775225
2727.000000	99.775690
2726.000000	99.776096
2725.000000	99.776530
2724.000000	99.777067
2723.000000	99.777723
2722.000000	99.778492
2721.000000	99.779370
2720.000000	99.780306
2719.000000	99.781187
2718.000000	99.781943
2717.000000	99.782628
2716.000000	99.783363
2715.000000	99.784175
2714.000000	99.784961
2713.000000	99.785612
2712.000000	99.786102
2711.000000	99.786456
2710.000000	99.786714
2709.000000	99.786964
2708.000000	99.787332
2707.000000	99.787903
2706.000000	99.788637
2705.000000	99.789360
2704.000000	99.789862
2703.000000	99.790051
2702.000000	99.790016
2701.000000	99.790027
2700.000000	99.790321
2699.000000	99.790922
2698.000000	99.791630
2697.000000	99.792179
2696.000000	99.792479
2695.000000	99.792652
2694.000000	99.792889
2693.000000	99.793279
2692.000000	99.793779
2691.000000	99.794324
2690.000000	99.794899
2689.000000	99.795447
2688.000000	99.795781
2687.000000	99.795714
2686.000000	99.795295
2685.000000	99.794803
2684.000000	99.794475
2683.000000	99.794328
2682.000000	99.794297
2681.000000	99.794396
2680.000000	99.794638
2679.000000	99.794894
2678.000000	99.794981
2677.000000	99.794879
2676.000000	99.794714
2675.000000	99.794520
2674.000000	99.794224
2673.000000	99.793887
2672.000000	99.793732
2671.000000	99.793839
2670.000000	99.794006
2669.000000	99.794050
2668.000000	99.794072
2667.000000	99.794230
2666.000000	99.794410
2665.000000	99.794372
2664.000000	99.794151
2663.000000	99.794062
2662.000000	99.794290
2661.000000	99.794674
2660.000000	99.794859
2659.000000	99.794540
2658.000000	99.793640
2657.000000	99.792502
2656.000000	99.791804
2655.000000	99.791976
2654.000000	99.792746
2653.000000	99.793335
2652.000000	99.793250
2651.000000	99.792672
2650.000000	99.792068
2649.000000	99.791704
2648.000000	99.791688
2647.000000	99.792255
2646.000000	99.793675
2645.000000	99.795768
2644.000000	99.797701
2643.000000	99.798590
2642.000000	99.798191
2641.000000	99.796978
2640.000000	99.795580
2639.000000	99.794266
2638.000000	99.793157
2637.000000	99.792491
2636.000000	99.792349
2635.000000	99.792341
2634.000000	99.791933
2633.000000	99.791113
2632.000000	99.790467
2631.000000	99.790503
2630.000000	99.791110
2629.000000	99.791780
2628.000000	99.792183
2627.000000	99.792362
2626.000000	99.792479
2625.000000	99.792553
2624.000000	99.792475
2623.000000	99.792218
2622.000000	99.791983
2621.000000	99.792056
2620.000000	99.792466
2619.000000	99.792859
2618.000000	99.792871
2617.000000	99.792622
2616.000000	99.792670
2615.000000	99.793424
2614.000000	99.794721
2613.000000	99.796014
2612.000000	99.796834
2611.000000	99.797019
2610.000000	99.796594
2609.000000	99.795673
2608.000000	99.794535
2607.000000	99.793605
2606.000000	99.793243
2605.000000	99.793549
2604.000000	99.794471
2603.000000	99.796023
2602.000000	99.798201
2601.000000	99.800593
2600.000000	99.802283
2599.000000	99.802544
2598.000000	99.801469
2597.000000	99.799915
2596.000000	99.798747
2595.000000	99.798206
2594.000000	99.798104
2593.000000	99.798218
2592.000000	99.798306
2591.000000	99.798063
2590.000000	99.797439
2589.000000	99.796924
2588.000000	99.797150
2587.000000	99.798190
2586.000000	99.799415
2585.000000	99.800061
2584.000000	99.799797
2583.000000	99.798771
2582.000000	99.797426
2581.000000	99.796324
2580.000000	99.795881
2579.000000	99.796121
2578.000000	99.796802
2577.000000	99.797703
2576.000000	99.798677
2575.000000	99.799507
2574.000000	99.800051
2573.000000	99.800520
2572.000000	99.801217
2571.000000	99.801950
2570.000000	99.802056
2569.000000	99.801138
2568.000000	99.799461
2567.000000	99.797636
2566.000000	99.796187
2565.000000	99.795467
2564.000000	99.795584
2563.000000	99.796208
2562.000000	99.796737
2561.000000	99.796841
2560.000000	99.796576
2559.000000	99.795924
2558.000000	99.794667
2557.000000	99.792961
2556.000000	99.791612
2555.000000	99.791286
2554.000000	99.791793
2553.000000	99.792510
2552.000000	99.793247
2551.000000	99.794328
2550.000000	99.795874
2549.000000	99.797506
2548.000000	99.798753
2547.000000	99.799451
2546.000000	99.799678
2545.000000	99.799530
2544.000000	99.799136
2543.000000	99.798777
2542.000000	99.798843
2541.000000	99.799529
2540.000000	99.800530
2539.000000	99.801176
2538.000000	99.801065
2537.000000	99.800486
2536.000000	99.800145
2535.000000	99.800422
2534.000000	99.801074
2533.000000	99.801601
2532.000000	99.801784
2531.000000	99.801787
2530.000000	99.801894
2529.000000	99.802275
2528.000000	99.802939
2527.000000	99.803759
2526.000000	99.804523
2525.000000	99.805069
2524.000000	99.805402
2523.000000	99.805651
2522.000000	99.805911
2521.000000	99.806192
2520.000000	99.806493
2519.000000	99.806833
2518.000000	99.807195
2517.000000	99.807520
2516.000000	99.807805
2515.000000	99.808143
2514.000000	99.808621
2513.000000	99.809211
2512.000000	99.809814
2511.000000	99.810342
2510.000000	99.810781
2509.000000	99.811160
2508.000000	99.811515
2507.000000	99.811872
2506.000000	99.812233
2505.000000	99.812594
2504.000000	99.812957
2503.000000	99.813339
2502.000000	99.813744
2501.000000	99.814138
2500.000000	99.814445
2499.000000	99.814615
2498.000000	99.814686
2497.000000	99.814784
2496.000000	99.815008
2495.000000	99.815361
2494.000000	99.815756
2493.000000	99.816096
2492.000000	99.816359
2491.000000	99.816584
2490.000000	99.816809
2489.000000	99.817045
2488.000000	99.817294
2487.000000	99.817544
2486.000000	99.817772
2485.000000	99.817966
2484.000000	99.818151
2483.000000	99.818382
2482.000000	99.818683
2481.000000	99.819032
2480.000000	99.819375
2479.000000	99.819664
2478.000000	99.819877
2477.000000	99.820020
2476.000000	99.820121
2475.000000	99.820232
2474.000000	99.820409
2473.000000	99.820688
2472.000000	99.821059
2471.000000	99.821474
2470.000000	99.821868
2469.000000	99.822204
2468.000000	99.822486
2467.000000	99.822749
2466.000000	99.823034
2465.000000	99.823338
2464.000000	99.823631
2463.000000	99.823904
2462.000000	99.824178
2461.000000	99.824465
2460.000000	99.824750
2459.000000	99.825026
2458.000000	99.825335
2457.000000	99.825725
2456.000000	99.826165
2455.000000	99.826540
2454.000000	99.826791
2453.000000	99.827017
2452.000000	99.827358
2451.000000	99.827817
2450.000000	99.828288
2449.000000	99.828737
2448.000000	99.829242
2447.000000	99.829825
2446.000000	99.830340
2445.000000	99.830619
2444.000000	99.830696
2443.000000	99.830763
2442.000000	99.830938
2441.000000	99.831183
2440.000000	99.831457
2439.000000	99.831819
2438.000000	99.832377
2437.000000	99.833231
2436.000000	99.834398
2435.000000	99.835699
2434.000000	99.836766
2433.000000	99.837293
2432.000000	99.837332
2431.000000	99.837346
2430.000000	99.837873
2429.000000	99.839082
2428.000000	99.840646
2427.000000	99.841977
2426.000000	99.842691
2425.000000	99.842844
2424.000000	99.842741
2423.000000	99.842575
2422.000000	99.842322
2421.000000	99.841965
2420.000000	99.841704
2419.000000	99.841813
2418.000000	99.842360
2417.000000	99.843185
2416.000000	99.844106
2415.000000	99.845066
2414.000000	99.846039
2413.000000	99.846919
2412.000000	99.847591
2411.000000	99.848072
2410.000000	99.848482
2409.000000	99.848887
2408.000000	99.849243
2407.000000	99.849557
2406.000000	99.850005
2405.000000	99.850799
2404.000000	99.851968
2403.000000	99.853275
2402.000000	99.854352
2401.000000	99.854954
2400.000000	99.855092
2399.000000	99.855044
2398.000000	99.855226
2397.000000	99.855899
2396.000000	99.856996
2395.000000	99.858202
2394.000000	99.859237
2393.000000	99.860063
2392.000000	99.860805
2391.000000	99.861564
2390.000000	99.862351
2389.000000	99.863154
2388.000000	99.863999
2387.000000	99.864907
2386.000000	99.865823
2385.000000	99.866619
2384.000000	99.867212
2383.000000	99.867697
2382.000000	99.868363
2381.000000	99.869501
2380.000000	99.871156
2379.000000	99.872979
2378.000000	99.874372
2377.000000	99.874911
2376.000000	99.874694
2375.000000	99.874342
2374.000000	99.874540
2373.000000	99.875488
2372.000000	99.876781
2371.000000	99.877747
2370.000000	99.877949
2369.000000	99.877477
2368.000000	99.876895
2367.000000	99.876863
2366.000000	99.877504
2365.000000	99.878180
2364.000000	99.878012
2363.000000	99.876674
2362.000000	99.874911
2361.000000	99.873891
2360.000000	99.874022
2359.000000	99.874915
2358.000000	99.875921
2357.000000	99.876837
2356.000000	99.877645
2355.000000	99.878068
2354.000000	99.877803
2353.000000	99.876907
2352.000000	99.876189
2351.000000	99.876455
2350.000000	99.878000
2349.000000	99.880579
2348.000000	99.883027
2347.000000	99.884138
2346.000000	99.883575
2345.000000	99.882459
2344.000000	99.881620
2343.000000	99.880094
2342.000000	99.876994
2341.000000	99.873200
2340.000000	99.870963
2339.000000	99.871001
2338.000000	99.871694
2337.000000	99.870971
2336.000000	99.868772
2335.000000	99.866558
2334.000000	99.865472
2333.000000	99.865015
2332.000000	99.864147
2331.000000	99.862048
2330.000000	99.858695
2329.000000	99.855212
2328.000000	99.853070
2327.000000	99.853246
2326.000000	99.854979
2325.000000	99.856721
2324.000000	99.857361
2323.000000	99.856695
2322.000000	99.855053
2321.000000	99.852808
2320.000000	99.850902
2319.000000	99.850183
2318.000000	99.850861
2317.000000	99.852128
2316.000000	99.853219
2315.000000	99.853954
2314.000000	99.854462
2313.000000	99.854557
2312.000000	99.853903
2311.000000	99.852511
2310.000000	99.850610
2309.000000	99.848286
2308.000000	99.845461
2307.000000	99.842430
2306.000000	99.839906
2305.000000	99.838437
2304.000000	99.837782
2303.000000	99.836956
2302.000000	99.835054
2301.000000	99.832105
2300.000000	99.829173
2299.000000	99.827477
2298.000000	99.827289
2297.000000	99.827845
2296.000000	99.828100
2295.000000	99.827690
2294.000000	99.826824
2293.000000	99.825759
2292.000000	99.824594
2291.000000	99.823593
2290.000000	99.823169
2289.000000	99.823480
2288.000000	99.824088
2287.000000	99.824274
2286.000000	99.823632
2285.000000	99.822247
2284.000000	99.820460
2283.000000	99.818617
2282.000000	99.817085
2281.000000	99.816231
2280.000000	99.816099
2279.000000	99.816161
2278.000000	99.815702
2277.000000	99.814523
2276.000000	99.813157
2275.000000	99.812281
2274.000000	99.812038
2273.000000	99.812044
2272.000000	99.811877
2271.000000	99.811372
2270.000000	99.810529
2269.000000	99.809446
2268.000000	99.808406
2267.000000	99.807772
2266.000000	99.807591
2265.000000	99.807455
2264.000000	99.806993
2263.000000	99.806472
2262.000000	99.806499
2261.000000	99.807142
2260.000000	99.807711
2259.000000	99.807543
2258.000000	99.806819
2257.000000	99.806301
2256.000000	99.806473
2255.000000	99.807126
2254.000000	99.807724
2253.000000	99.807886
2252.000000	99.807496
2251.000000	99.806617
2250.000000	99.805467
2249.000000	99.804447
2248.000000	99.803926
2247.000000	99.803935
2246.000000	99.804122
2245.000000	99.804040
2244.000000	99.803394
2243.000000	99.802054
2242.000000	99.800045
2241.000000	99.797657
2240.000000	99.795387
2239.000000	99.793617
2238.000000	99.792363
2237.000000	99.791488
2236.000000	99.791095
2235.000000	99.791375
2234.000000	99.792110
2233.000000	99.792738
2232.000000	99.793035
2231.000000	99.793412
2230.000000	99.794359
2229.000000	99.795771
2228.000000	99.797002
2227.000000	99.797489
2226.000000	99.797182
2225.000000	99.796479
2224.000000	99.795930
2223.000000	99.795886
2222.000000	99.796216
2221.000000	99.796383
2220.000000	99.795952
2219.000000	99.795049
2218.000000	99.794244
2217.000000	99.793958
2216.000000	99.794105
2215.000000	99.794360
2214.000000	99.794573
2213.000000	99.794813
2212.000000	99.795096
2211.000000	99.795281
2210.000000	99.795245
2209.000000	99.795046
2208.000000	99.794862
2207.000000	99.794822
2206.000000	99.794921
2205.000000	99.795081
2204.000000	99.795251
2203.000000	99.795425
2202.000000	99.795596
2201.000000	99.795745
2200.000000	99.795871
2199.000000	99.795993
2198.000000	99.796112
2197.000000	99.796227
2196.000000	99.796340
2195.000000	99.796449
2194.000000	99.796548
2193.000000	99.796628
2192.000000	99.796687
2191.000000	99.796727
2190.000000	99.796754
2189.000000	99.796776
2188.000000	99.796800
2187.000000	99.796832
2186.000000	99.796875
2185.000000	99.796932
2184.000000	99.796999
2183.000000	99.797075
2182.000000	99.797157
2181.000000	99.797244
2180.000000	99.797333
2179.000000	99.797425
2178.000000	99.797517
2177.000000	99.797611
2176.000000	99.797710
2175.000000	99.797820
2174.000000	99.797927
2173.000000	99.798007
2172.000000	99.798053
2171.000000	99.798094
2170.000000	99.798180
2169.000000	99.798333
2168.000000	99.798533
2167.000000	99.798737
2166.000000	99.798927
2165.000000	99.799098
2164.000000	99.799232
2163.000000	99.799305
2162.000000	99.799344
2161.000000	99.799370
2160.000000	99.799301
2159.000000	99.799035
2158.000000	99.798676
2157.000000	99.798505
2156.000000	99.798657
2155.000000	99.798965
2154.000000	99.799248
2153.000000	99.799525
2152.000000	99.799826
2151.000000	99.800046
2150.000000	99.800153
2149.000000	99.800348
2148.000000	99.800834
2147.000000	99.801583
2146.000000	99.802447
2145.000000	99.803349
2144.000000	99.804196
2143.000000	99.804747
2142.000000	99.804855
2141.000000	99.804725
2140.000000	99.804745
2139.000000	99.805030
2138.000000	99.805340
2137.000000	99.805436
2136.000000	99.805354
2135.000000	99.805299
2134.000000	99.805419
2133.000000	99.805773
2132.000000	99.806390
2131.000000	99.807244
2130.000000	99.808188
2129.000000	99.808991
2128.000000	99.809497
2127.000000	99.809728
2126.000000	99.809830
2125.000000	99.809935
2124.000000	99.810066
2123.000000	99.810211
2122.000000	99.810456
2121.000000	99.810956
2120.000000	99.811753
2119.000000	99.812703
2118.000000	99.813575
2117.000000	99.814240
2116.000000	99.814712
2115.000000	99.815074
2114.000000	99.815409
2113.000000	99.815780
2112.000000	99.816220
2111.000000	99.816731
2110.000000	99.817292
2109.000000	99.817863
2108.000000	99.818388
2107.000000	99.818808
2106.000000	99.819112
2105.000000	99.819396
2104.000000	99.819812
2103.000000	99.820422
2102.000000	99.821109
2101.000000	99.821667
2100.000000	99.822008
2099.000000	99.822213
2098.000000	99.822430
2097.000000	99.822738
2096.000000	99.823135
2095.000000	99.823580
2094.000000	99.823991
2093.000000	99.824262
2092.000000	99.824386
2091.000000	99.824561
2090.000000	99.825053
2089.000000	99.825898
2088.000000	99.826803
2087.000000	99.827464
2086.000000	99.827918
2085.000000	99.828359
2084.000000	99.828681
2083.000000	99.828532
2082.000000	99.827904
2081.000000	99.827328
2080.000000	99.827204
2079.000000	99.827265
2078.000000	99.826996
2077.000000	99.826392
2076.000000	99.825960
2075.000000	99.826120
2074.000000	99.826950
2073.000000	99.828306
2072.000000	99.829759
2071.000000	99.830572
2070.000000	99.830237
2069.000000	99.829062
2068.000000	99.827864
2067.000000	99.826954
2066.000000	99.825922
2065.000000	99.824500
2064.000000	99.823099
2063.000000	99.822257
2062.000000	99.821950
2061.000000	99.821746
2060.000000	99.821352
2059.000000	99.820771
2058.000000	99.820074
2057.000000	99.819303
2056.000000	99.818544
2055.000000	99.817892
2054.000000	99.817357
2053.000000	99.816892
2052.000000	99.816509
2051.000000	99.816245
2050.000000	99.816019
2049.000000	99.815605
2048.000000	99.814809
2047.000000	99.813639
2046.000000	99.812298
2045.000000	99.811027
2044.000000	99.809953
2043.000000	99.809060
2042.000000	99.808230
2041.000000	99.807286
2040.000000	99.806092
2039.000000	99.804665
2038.000000	99.803223
2037.000000	99.802036
2036.000000	99.801166
2035.000000	99.800423
2034.000000	99.799527
2033.000000	99.798390
2032.000000	99.797136
2031.000000	99.795945
2030.000000	99.794877
2029.000000	99.793876
2028.000000	99.792862
2027.000000	99.791799
2026.000000	99.790702
2025.000000	99.789634
2024.000000	99.788649
2023.000000	99.787728
2022.000000	99.786781
2021.000000	99.785772
2020.000000	99.784782
2019.000000	99.783906
2018.000000	99.783153
2017.000000	99.782466
2016.000000	99.781771
2015.000000	99.780980
2014.000000	99.780030
2013.000000	99.779025
2012.000000	99.778209
2011.000000	99.777695
2010.000000	99.777261
2009.000000	99.776568
2008.000000	99.775498
2007.000000	99.774162
2006.000000	99.772709
2005.000000	99.771296
2004.000000	99.770185
2003.000000	99.769566
2002.000000	99.769246
2001.000000	99.768760
2000.000000	99.767883
1999.000000	99.766883
1998.000000	99.766184
1997.000000	99.765962
1996.000000	99.766106
1995.000000	99.766372
1994.000000	99.766424
1993.000000	99.765912
1992.000000	99.764787
1991.000000	99.763506
1990.000000	99.762706
1989.000000	99.762679
1988.000000	99.763281
1987.000000	99.764123
1986.000000	99.764783
1985.000000	99.764974
1984.000000	99.764662
1983.000000	99.764010
1982.000000	99.763150
1981.000000	99.762061
1980.000000	99.760743
1979.000000	99.759434
1978.000000	99.758471
1977.000000	99.757893
1976.000000	99.757355
1975.000000	99.756548
1974.000000	99.755648
1973.000000	99.755173
1972.000000	99.755406
1971.000000	99.756077
1970.000000	99.756592
1969.000000	99.756555
1968.000000	99.756038
1967.000000	99.755425
1966.000000	99.755035
1965.000000	99.754856
1964.000000	99.754672
1963.000000	99.754368
1962.000000	99.754065
1961.000000	99.753980
1960.000000	99.754184
1959.000000	99.754483
1958.000000	99.754500
1957.000000	99.753908
1956.000000	99.752658
1955.000000	99.751039
1954.000000	99.749516
1953.000000	99.748396
1952.000000	99.747749
1951.000000	99.747590
1950.000000	99.748006
1949.000000	99.748961
1948.000000	99.749937
1947.000000	99.750031
1946.000000	99.748760
1945.000000	99.746688
1944.000000	99.745050
1943.000000	99.744569
1942.000000	99.744845
1941.000000	99.745025
1940.000000	99.744735
1939.000000	99.744080
1938.000000	99.743122
1937.000000	99.741721
1936.000000	99.739829
1935.000000	99.737725
1934.000000	99.735892
1933.000000	99.734826
1932.000000	99.734988
1931.000000	99.736408
1930.000000	99.738314
1929.000000	99.739584
1928.000000	99.739617
1927.000000	99.738802
1926.000000	99.737802
1925.000000	99.736758
1924.000000	99.735239
1923.000000	99.732930
1922.000000	99.730332
1921.000000	99.728332
1920.000000	99.727097
1919.000000	99.725875
1918.000000	99.723721
1917.000000	99.720598
1916.000000	99.717280
1915.000000	99.714167
1914.000000	99.711159
1913.000000	99.708331
1912.000000	99.706065
1911.000000	99.704445
1910.000000	99.703002
1909.000000	99.701354
1908.000000	99.699735
1907.000000	99.698682
1906.000000	99.698053
1905.000000	99.696989
1904.000000	99.694816
1903.000000	99.691732
1902.000000	99.688725
1901.000000	99.686757
1900.000000	99.685897
1899.000000	99.685432
1898.000000	99.684497
1897.000000	99.682459
1896.000000	99.678942
1895.000000	99.674062
1894.000000	99.669046
1893.000000	99.665854
1892.000000	99.665547
1891.000000	99.667230
1890.000000	99.668532
1889.000000	99.667729
1888.000000	99.665369
1887.000000	99.663160
1886.000000	99.662171
1885.000000	99.662432
1884.000000	99.663240
1883.000000	99.663522
1882.000000	99.662408
1881.000000	99.659806
1880.000000	99.656443
1879.000000	99.653531
1878.000000	99.652111
1877.000000	99.652358
1876.000000	99.653410
1875.000000	99.653941
1874.000000	99.653267
1873.000000	99.651927
1872.000000	99.650833
1871.000000	99.650063
1870.000000	99.648781
1869.000000	99.646550
1868.000000	99.644725
1867.000000	99.645285
1866.000000	99.648547
1865.000000	99.653108
1864.000000	99.657149
1863.000000	99.659513
1862.000000	99.660208
1861.000000	99.660196
1860.000000	99.660557
1859.000000	99.661843
1858.000000	99.664172
1857.000000	99.667342
1856.000000	99.670527
1855.000000	99.672530
1854.000000	99.673012
1853.000000	99.673311
1852.000000	99.674825
1851.000000	99.677373
1850.000000	99.679547
1849.000000	99.680370
1848.000000	99.680249
1847.000000	99.680346
1846.000000	99.681755
1845.000000	99.685010
1844.000000	99.689504
1843.000000	99.693937
1842.000000	99.697349
1841.000000	99.699193
1840.000000	99.699191
1839.000000	99.697725
1838.000000	99.696078
1837.000000	99.695948
1836.000000	99.697866
1835.000000	99.700408
1834.000000	99.701625
1833.000000	99.700968
1832.000000	99.699436
1831.000000	99.698517
1830.000000	99.698705
1829.000000	99.699389
1828.000000	99.699925
1827.000000	99.699967
1826.000000	99.699429
1825.000000	99.698537
1824.000000	99.697929
1823.000000	99.698120
1822.000000	99.698904
1821.000000	99.699753
1820.000000	99.700384
1819.000000	99.700678
1818.000000	99.700281
1817.000000	99.699102
1816.000000	99.698038
1815.000000	99.698275
1814.000000	99.699895
1813.000000	99.701445
1812.000000	99.701262
1811.000000	99.699062
1810.000000	99.696185
1809.000000	99.694649
1808.000000	99.695642
1807.000000	99.698483
1806.000000	99.700902
1805.000000	99.700812
1804.000000	99.698106
1803.000000	99.694608
1802.000000	99.692726
1801.000000	99.693596
1800.000000	99.696726
1799.000000	99.700668
1798.000000	99.703912
1797.000000	99.705662
1796.000000	99.705968
1795.000000	99.705270
1794.000000	99.704327
1793.000000	99.703718
1792.000000	99.703437
1791.000000	99.703364
1790.000000	99.703448
1789.000000	99.703441
1788.000000	99.703136
1787.000000	99.702586
1786.000000	99.702228
1785.000000	99.702922
1784.000000	99.705248
1783.000000	99.708512
1782.000000	99.712259
1781.000000	99.716658
1780.000000	99.721777
1779.000000	99.726824
1778.000000	99.730534
1777.000000	99.732513
1776.000000	99.732980
1775.000000	99.732342
1774.000000	99.731769
1773.000000	99.732797
1772.000000	99.735739
1771.000000	99.740423
1770.000000	99.746114
1769.000000	99.751792
1768.000000	99.757564
1767.000000	99.763882
1766.000000	99.770511
1765.000000	99.776304
1764.000000	99.780493
1763.000000	99.783095
1762.000000	99.784519
1761.000000	99.785877
1760.000000	99.789563
1759.000000	99.797083
1758.000000	99.808733
1757.000000	99.823508
1756.000000	99.838672
1755.000000	99.852454
1754.000000	99.864925
1753.000000	99.876902
1752.000000	99.888623
1751.000000	99.899227
1750.000000	99.907865
1749.000000	99.915331
1748.000000	99.922892
1747.000000	99.931128
1746.000000	99.940148
1745.000000	99.948975
1744.000000	99.956401
1743.000000	99.962153
1742.000000	99.966430
1741.000000	99.967893
1740.000000	99.962949
1739.000000	99.948987
1738.000000	99.928662
1737.000000	99.906669
1736.000000	99.887487
1735.000000	99.876142
1734.000000	99.871274
1733.000000	99.865403
1732.000000	99.855621
1731.000000	99.843684
1730.000000	99.832481
1729.000000	99.824291
1728.000000	99.819854
1727.000000	99.818640
1726.000000	99.819008
1725.000000	99.817958
1724.000000	99.813371
1723.000000	99.805885
1722.000000	99.797711
1721.000000	99.790566
1720.000000	99.785461
1719.000000	99.783005
1718.000000	99.779808
1717.000000	99.770716
1716.000000	99.758311
1715.000000	99.748754
1714.000000	99.743663
1713.000000	99.741161
1712.000000	99.739227
1711.000000	99.737217
1710.000000	99.735572
1709.000000	99.734439
1708.000000	99.732917
1707.000000	99.730154
1706.000000	99.725826
1705.000000	99.720511
1704.000000	99.715375
1703.000000	99.709864
1702.000000	99.703152
1701.000000	99.696077
1700.000000	99.689958
1699.000000	99.686457
1698.000000	99.683960
1697.000000	99.679849
1696.000000	99.673740
1695.000000	99.667071
1694.000000	99.661670
1693.000000	99.657727
1692.000000	99.654391
1691.000000	99.650796
1690.000000	99.646675
1689.000000	99.642604
1688.000000	99.639146
1687.000000	99.636079
1686.000000	99.632719
1685.000000	99.628464
1684.000000	99.622664
1683.000000	99.616839
1682.000000	99.612821
1681.000000	99.610020
1680.000000	99.607354
1679.000000	99.604415
1678.000000	99.601429
1677.000000	99.598827
1676.000000	99.596584
1675.000000	99.593806
1674.000000	99.590370
1673.000000	99.587102
1672.000000	99.584535
1671.000000	99.582506
1670.000000	99.579939
1669.000000	99.576087
1668.000000	99.572091
1667.000000	99.569338
1666.000000	99.567764
1665.000000	99.566527
1664.000000	99.565057
1663.000000	99.562472
1662.000000	99.558421
1661.000000	99.554430
1660.000000	99.552061
1659.000000	99.551263
1658.000000	99.550288
1657.000000	99.546785
1656.000000	99.539214
1655.000000	99.529593
1654.000000	99.523193
1653.000000	99.519498
1652.000000	99.517038
1651.000000	99.516460
1650.000000	99.515262
1649.000000	99.512433
1648.000000	99.509843
1647.000000	99.509855
1646.000000	99.512463
1645.000000	99.515187
1644.000000	99.515787
1643.000000	99.514331
1642.000000	99.512693
1641.000000	99.512080
1640.000000	99.511653
1639.000000	99.510005
1638.000000	99.507028
1637.000000	99.505134
1636.000000	99.505766
1635.000000	99.506979
1634.000000	99.507297
1633.000000	99.506766
1632.000000	99.505697
1631.000000	99.503845
1630.000000	99.500514
1629.000000	99.496014
1628.000000	99.492634
1627.000000	99.492819
1626.000000	99.496825
1625.000000	99.502976
1624.000000	99.509662
1623.000000	99.515331
1622.000000	99.519047
1621.000000	99.521227
1620.000000	99.522882
1619.000000	99.525655
1618.000000	99.530592
1617.000000	99.535177
1616.000000	99.535818
1615.000000	99.535064
1614.000000	99.537303
1613.000000	99.542742
1612.000000	99.549313
1611.000000	99.555891
1610.000000	99.563558
1609.000000	99.573065
1608.000000	99.582612
1607.000000	99.589900
1606.000000	99.595240
1605.000000	99.600006
1604.000000	99.604091
1603.000000	99.607231
1602.000000	99.610746
1601.000000	99.616110
1600.000000	99.622641
1599.000000	99.628542
1598.000000	99.633613
1597.000000	99.639353
1596.000000	99.646632
1595.000000	99.654290
1594.000000	99.660622
1593.000000	99.665485
1592.000000	99.670052
1591.000000	99.675019
1590.000000	99.679878
1589.000000	99.683853
1588.000000	99.687045
1587.000000	99.690424
1586.000000	99.694729
1585.000000	99.699878
1584.000000	99.705065
1583.000000	99.710079
1582.000000	99.715479
1581.000000	99.721165
1580.000000	99.726116
1579.000000	99.730131
1578.000000	99.734597
1577.000000	99.740160
1576.000000	99.744257
1575.000000	99.745659
1574.000000	99.747603
1573.000000	99.751986
1572.000000	99.758022
1571.000000	99.764652
1570.000000	99.770769
1569.000000	99.775312
1568.000000	99.777570
1567.000000	99.777650
1566.000000	99.776922
1565.000000	99.777653
1564.000000	99.780309
1563.000000	99.783209
1562.000000	99.784308
1561.000000	99.784467
1560.000000	99.787914
1559.000000	99.792742
1558.000000	99.793411
1557.000000	99.793405
1556.000000	99.794927
1555.000000	99.797823
1554.000000	99.801838
1553.000000	99.805071
1552.000000	99.806046
1551.000000	99.805175
1550.000000	99.804204
1549.000000	99.804637
1548.000000	99.806367
1547.000000	99.808096
1546.000000	99.808941
1545.000000	99.808762
1544.000000	99.807841
1543.000000	99.806908
1542.000000	99.806608
1541.000000	99.807028
1540.000000	99.807089
1539.000000	99.806272
1538.000000	99.805803
1537.000000	99.806147
1536.000000	99.807275
1535.000000	99.809288
1534.000000	99.811184
1533.000000	99.810777
1532.000000	99.808160
1531.000000	99.805654
1530.000000	99.804556
1529.000000	99.804745
1528.000000	99.805468
1527.000000	99.806001
1526.000000	99.806180
1525.000000	99.806095
1524.000000	99.805769
1523.000000	99.805558
1522.000000	99.806046
1521.000000	99.806918
1520.000000	99.807325
1519.000000	99.807177
1518.000000	99.807033
1517.000000	99.807029
1516.000000	99.806428
1515.000000	99.804921
1514.000000	99.803464
1513.000000	99.803385
1512.000000	99.805296
1511.000000	99.808484
1510.000000	99.811542
1509.000000	99.813617
1508.000000	99.814441
1507.000000	99.812888
1506.000000	99.809299
1505.000000	99.807667
1504.000000	99.809172
1503.000000	99.812237
1502.000000	99.815761
1501.000000	99.819415
1500.000000	99.823558
1499.000000	99.828554
1498.000000	99.833813
1497.000000	99.837181
1496.000000	99.837335
1495.000000	99.835566
1494.000000	99.833764
1493.000000	99.832606
1492.000000	99.832392
1491.000000	99.833429
1490.000000	99.834995
1489.000000	99.835637
1488.000000	99.835095
1487.000000	99.833821
1486.000000	99.832262
1485.000000	99.831703
1484.000000	99.833249
1483.000000	99.837387
1482.000000	99.843823
1481.000000	99.850940
1480.000000	99.856492
1479.000000	99.859229
1478.000000	99.859796
1477.000000	99.860101
1476.000000	99.861980
1475.000000	99.865854
1474.000000	99.871780
1473.000000	99.879803
1472.000000	99.888925
1471.000000	99.897991
1470.000000	99.906301
1469.000000	99.913207
1468.000000	99.918023
1467.000000	99.919718
1466.000000	99.917399
1465.000000	99.911642
1464.000000	99.905063
1463.000000	99.900452
1462.000000	99.897821
1461.000000	99.896124
1460.000000	99.895295
1459.000000	99.896183
1458.000000	99.897925
1457.000000	99.895850
1456.000000	99.889265
1455.000000	99.884089
1454.000000	99.883389
1453.000000	99.886049
1452.000000	99.889611
1451.000000	99.891416
1450.000000	99.890242
1449.000000	99.886937
1448.000000	99.884074
1447.000000	99.883470
1446.000000	99.884714
1445.000000	99.885853
1444.000000	99.885528
1443.000000	99.884053
1442.000000	99.882128
1441.000000	99.879705
1440.000000	99.876138
1439.000000	99.871403
1438.000000	99.866489
1437.000000	99.862971
1436.000000	99.862080
1435.000000	99.863976
1434.000000	99.867209
1433.000000	99.869879
1432.000000	99.870901
1431.000000	99.870169
1430.000000	99.868317
1429.000000	99.866006
1428.000000	99.863686
1427.000000	99.861615
1426.000000	99.860385
1425.000000	99.860709
1424.000000	99.862495
1423.000000	99.864742
1422.000000	99.866100
1421.000000	99.865639
1420.000000	99.863261
1419.000000	99.860299
1418.000000	99.859044
1417.000000	99.860420
1416.000000	99.863291
1415.000000	99.866041
1414.000000	99.867851
1413.000000	99.869011
1412.000000	99.870539
1411.000000	99.873148
1410.000000	99.876217
1409.000000	99.878187
1408.000000	99.878264
1407.000000	99.877190
1406.000000	99.876721
1405.000000	99.878065
1404.000000	99.880710
1403.000000	99.883210
1402.000000	99.884710
1401.000000	99.885469
1400.000000	99.886298
1399.000000	99.887790
1398.000000	99.890104
1397.000000	99.893260
1396.000000	99.897175
1395.000000	99.901132
1394.000000	99.904090
1393.000000	99.905786
1392.000000	99.906855
1391.000000	99.907921
1390.000000	99.909049
1389.000000	99.910057
1388.000000	99.911111
1387.000000	99.912587
1386.000000	99.914415
1385.000000	99.916033
1384.000000	99.917095
1383.000000	99.917945
1382.000000	99.919224
1381.000000	99.921337
1380.000000	99.924303
1379.000000	99.927738
1378.000000	99.930905
1377.000000	99.933053
1376.000000	99.933896
1375.000000	99.933728
1374.000000	99.933371
1373.000000	99.933692
1372.000000	99.935030
1371.000000	99.937099
1370.000000	99.939392
1369.000000	99.941534
1368.000000	99.943405
1367.000000	99.945055
1366.000000	99.946254
1365.000000	99.946472
1364.000000	99.945636
1363.000000	99.944773
1362.000000	99.945363
1361.000000	99.947688
1360.000000	99.950485
1359.000000	99.952309
1358.000000	99.952725
1357.000000	99.952158
1356.000000	99.951240
1355.000000	99.950492
1354.000000	99.950290
1353.000000	99.950702
1352.000000	99.951454
1351.000000	99.952132
1350.000000	99.952617
1349.000000	99.953026
1348.000000	99.953174
1347.000000	99.952559
1346.000000	99.951061
1345.000000	99.949470
1344.000000	99.948931
1343.000000	99.949759
1342.000000	99.950923
1341.000000	99.950822
1340.000000	99.948807
1339.000000	99.946144
1338.000000	99.944958
1337.000000	99.946005
1336.000000	99.948207
1335.000000	99.950144
1334.000000	99.951395
1333.000000	99.952402
1332.000000	99.953496
1331.000000	99.954416
1330.000000	99.954682
1329.000000	99.954058
1328.000000	99.952602
1327.000000	99.950462
1326.000000	99.947869
1325.000000	99.945314
1324.000000	99.943744
1323.000000	99.944394
1322.000000	99.947648
1321.000000	99.951862
1320.000000	99.954061
1319.000000	99.952675
1318.000000	99.949332
1317.000000	99.947156
1316.000000	99.947602
1315.000000	99.949822
1314.000000	99.952405
1313.000000	99.954528
1312.000000	99.955649
1311.000000	99.955294
1310.000000	99.953709
1309.000000	99.952095
1308.000000	99.951609
1307.000000	99.952195
1306.000000	99.952799
1305.000000	99.952658
1304.000000	99.952134
1303.000000	99.952303
1302.000000	99.953614
1301.000000	99.955071
1300.000000	99.955221
1299.000000	99.953982
1298.000000	99.952757
1297.000000	99.952305
1296.000000	99.951316
1295.000000	99.948280
1294.000000	99.944264
1293.000000	99.942235
1292.000000	99.943435
1291.000000	99.945767
1290.000000	99.946273
1289.000000	99.944163
1288.000000	99.940699
1287.000000	99.937287
1286.000000	99.934900
1285.000000	99.934537
1284.000000	99.936571
1283.000000	99.939548
1282.000000	99.940755
1281.000000	99.938399
1280.000000	99.932758
1279.000000	99.925677
1278.000000	99.919853
1277.000000	99.917992
1276.000000	99.920819
1275.000000	99.925416
1274.000000	99.927039
1273.000000	99.923694
1272.000000	99.918307
1271.000000	99.915818
1270.000000	99.918615
1269.000000	99.925069
1268.000000	99.931495
1267.000000	99.934887
1266.000000	99.934881
1265.000000	99.934087
1264.000000	99.935798
1263.000000	99.940448
1262.000000	99.944813
1261.000000	99.945458
1260.000000	99.942278
1259.000000	99.937938
1258.000000	99.934435
1257.000000	99.931262
1256.000000	99.926749
1255.000000	99.920275
1254.000000	99.913167
1253.000000	99.907647
1252.000000	99.904471
1251.000000	99.901486
1250.000000	99.895373
1249.000000	99.885264
1248.000000	99.873680
1247.000000	99.863593
1246.000000	99.855756
1245.000000	99.849371
1244.000000	99.843497
1243.000000	99.836467
1242.000000	99.825854
1241.000000	99.811341
1240.000000	99.796399
1239.000000	99.784558
1238.000000	99.774550
1237.000000	99.761683
1236.000000	99.743762
1235.000000	99.723225
1234.000000	99.703773
1233.000000	99.687471
1232.000000	99.675088
1231.000000	99.666035
1230.000000	99.656781
1229.000000	99.642060
1228.000000	99.619368
1227.000000	99.590843
1226.000000	99.559815
1225.000000	99.527007
1224.000000	99.491252
1223.000000	99.452299
1222.000000	99.411501
1221.000000	99.370619
1220.000000	99.330544
1219.000000	99.290027
1218.000000	99.245635
1217.000000	99.194927
1216.000000	99.139891
1215.000000	99.084921
1214.000000	99.030837
1213.000000	98.973791
1212.000000	98.911404
1211.000000	98.847004
1210.000000	98.785787
1209.000000	98.729095
1208.000000	98.674622
1207.000000	98.620255
1206.000000	98.565728
1205.000000	98.511914
1204.000000	98.459617
1203.000000	98.407672
1202.000000	98.352198
1201.000000	98.290282
1200.000000	98.224548
1199.000000	98.160863
1198.000000	98.101072
1197.000000	98.042073
1196.000000	97.982944
1195.000000	97.927724
1194.000000	97.878396
1193.000000	97.829559
1192.000000	97.773963
1191.000000	97.710661
1190.000000	97.644528
1189.000000	97.579918
1188.000000	97.517688
1187.000000	97.456372
1186.000000	97.393279
1185.000000	97.325913
1184.000000	97.254665
1183.000000	97.182800
1182.000000	97.112347
1181.000000	97.041981
1180.000000	96.970225
1179.000000	96.897717
1178.000000	96.824216
1177.000000	96.746372
1176.000000	96.661407
1175.000000	96.570910
1174.000000	96.478394
1173.000000	96.384902
1172.000000	96.289682
1171.000000	96.193694
1170.000000	96.099957
1169.000000	96.011343
1168.000000	95.929663
1167.000000	95.856198
1166.000000	95.792714
1165.000000	95.743326
1164.000000	95.714755
1163.000000	95.711802
1162.000000	95.732167
1161.000000	95.767514
1160.000000	95.808294
1159.000000	95.844861
1158.000000	95.866867
1157.000000	95.867107
1156.000000	95.845510
1155.000000	95.805989
1154.000000	95.751068
1153.000000	95.683560
1152.000000	95.610880
1151.000000	95.540770
1150.000000	95.472768
1149.000000	95.400544
1148.000000	95.323202
1147.000000	95.247748
1146.000000	95.179437
1145.000000	95.116141
1144.000000	95.053532
1143.000000	94.989023
1142.000000	94.919029
1141.000000	94.839800
1140.000000	94.754341
1139.000000	94.672652
1138.000000	94.601374
1137.000000	94.537278
1136.000000	94.472859
1135.000000	94.403532
1134.000000	94.328298
1133.000000	94.249351
1132.000000	94.172951
1131.000000	94.104900
1130.000000	94.042755
1129.000000	93.977516
1128.000000	93.904383
1127.000000	93.826628
1126.000000	93.748608
1125.000000	93.671577
1124.000000	93.597259
1123.000000	93.527917
1122.000000	93.460705
1121.000000	93.388915
1120.000000	93.310926
1119.000000	93.231549
1118.000000	93.153668
1117.000000	93.076347
1116.000000	93.001949
1115.000000	92.935593
1114.000000	92.875200
1113.000000	92.811789
1112.000000	92.742813
1111.000000	92.675366
1110.000000	92.612584
1109.000000	92.547116
1108.000000	92.472940
1107.000000	92.394539
1106.000000	92.319299
1105.000000	92.249098
1104.000000	92.183718
1103.000000	92.124020
1102.000000	92.067162
1101.000000	92.006633
1100.000000	91.940920
1099.000000	91.874567
1098.000000	91.808608
1097.000000	91.739707
1096.000000	91.671243
1095.000000	91.613993
1094.000000	91.571066
1093.000000	91.532468
1092.000000	91.489536
1091.000000	91.445012
1090.000000	91.403813
1089.000000	91.364155
1088.000000	91.324237
1087.000000	91.288820
1086.000000	91.262574
1085.000000	91.243875
1084.000000	91.229874
1083.000000	91.220320
1082.000000	91.212271
1081.000000	91.198736
1080.000000	91.176857
1079.000000	91.150880
1078.000000	91.124260
1077.000000	91.095684
1076.000000	91.064528
1075.000000	91.031788
1074.000000	90.993625
1073.000000	90.942845
1072.000000	90.878852
1071.000000	90.807184
1070.000000	90.727017
1069.000000	90.628399
1068.000000	90.504584
1067.000000	90.358708
1066.000000	90.197130
1065.000000	90.025982
1064.000000	89.856297
1063.000000	89.700806
1062.000000	89.560801
1061.000000	89.425999
1060.000000	89.290847
1059.000000	89.160904
1058.000000	89.040639
1057.000000	88.926196
1056.000000	88.813372
1055.000000	88.701161
1054.000000	88.584324
1053.000000	88.455129
1052.000000	88.317476
1051.000000	88.186799
1050.000000	88.070218
1049.000000	87.959843
1048.000000	87.849872
1047.000000	87.744218
1046.000000	87.642423
1045.000000	87.534231
1044.000000	87.413914
1043.000000	87.287257
1042.000000	87.160006
1041.000000	87.031530
1040.000000	86.903907
1039.000000	86.784520
1038.000000	86.674557
1037.000000	86.566994
1036.000000	86.460574
1035.000000	86.363717
1034.000000	86.280234
1033.000000	86.203432
1032.000000	86.128466
1031.000000	86.058631
1030.000000	85.996070
1029.000000	85.938610
1028.000000	85.888651
1027.000000	85.851899
1026.000000	85.824132
1025.000000	85.792459
1024.000000	85.752848
1023.000000	85.713408
1022.000000	85.678581
1021.000000	85.644721
1020.000000	85.612964
1019.000000	85.589858
1018.000000	85.571426
1017.000000	85.542819
1016.000000	85.498993
1015.000000	85.451010
1014.000000	85.407395
1013.000000	85.364409
1012.000000	85.319521
1011.000000	85.279112
1010.000000	85.246864
1009.000000	85.218595
1008.000000	85.193795
1007.000000	85.178060
1006.000000	85.168850
1005.000000	85.153324
1004.000000	85.126573
1003.000000	85.099126
1002.000000	85.080874
1001.000000	85.070504
1000.000000	85.065572
999.000000	85.069066
998.000000	85.079730
997.000000	85.088874
996.000000	85.093541
995.000000	85.101702
994.000000	85.118924
993.000000	85.140741
992.000000	85.162536
991.000000	85.186180
990.000000	85.213145
989.000000	85.242042
988.000000	85.276035
987.000000	85.321174
986.000000	85.374696
985.000000	85.427162
984.000000	85.479097
983.000000	85.543071
982.000000	85.626270
981.000000	85.723222
980.000000	85.828094
979.000000	85.941258
978.000000	86.060722
977.000000	86.180638
976.000000	86.302626
975.000000	86.436491
974.000000	86.585867
973.000000	86.744197
972.000000	86.907221
971.000000	87.077023
970.000000	87.250886
969.000000	87.419426
968.000000	87.580174
967.000000	87.741102
966.000000	87.906339
965.000000	88.069680
964.000000	88.226705
963.000000	88.382123
962.000000	88.539670
961.000000	88.694390
960.000000	88.840446
959.000000	88.978829
958.000000	89.113602
957.000000	89.247866
956.000000	89.385586
955.000000	89.528439
954.000000	89.668252
953.000000	89.792080
952.000000	89.898048
951.000000	89.997750
950.000000	90.100134
949.000000	90.201557
948.000000	90.295192
947.000000	90.380948
946.000000	90.461610
945.000000	90.537212
944.000000	90.607865
943.000000	90.675633
942.000000	90.740265
941.000000	90.799452
940.000000	90.855487
939.000000	90.914456
938.000000	90.976638
937.000000	91.035581
936.000000	91.088990
935.000000	91.142230
934.000000	91.198687
933.000000	91.255657
932.000000	91.312980
931.000000	91.376170
930.000000	91.446155
929.000000	91.514546
928.000000	91.574911
927.000000	91.631697
926.000000	91.692492
925.000000	91.757326
924.000000	91.820751
923.000000	91.879331
922.000000	91.932679
921.000000	91.981651
920.000000	92.029176
919.000000	92.078532
918.000000	92.127972
917.000000	92.171675
916.000000	92.208683
915.000000	92.246360
914.000000	92.292593
913.000000	92.349278
912.000000	92.415215
911.000000	92.490112
910.000000	92.573642
909.000000	92.665004
908.000000	92.764684
907.000000	92.872204
906.000000	92.982648
905.000000	93.091799
904.000000	93.204522
903.000000	93.330806
902.000000	93.472585
901.000000	93.621121
900.000000	93.768279
899.000000	93.913531
898.000000	94.058541
897.000000	94.202300
896.000000	94.344297
895.000000	94.486246
894.000000	94.627194
893.000000	94.761409
892.000000	94.884094
891.000000	94.996307
890.000000	95.102674
889.000000	95.206722
888.000000	95.309069
887.000000	95.407627
886.000000	95.499380
885.000000	95.584247
884.000000	95.666561
883.000000	95.750820
882.000000	95.838204
881.000000	95.929685
880.000000	96.027955
879.000000	96.131043
878.000000	96.229239
877.000000	96.316809
876.000000	96.403158
875.000000	96.502371
874.000000	96.612919
873.000000	96.718014
872.000000	96.806451
871.000000	96.883870
870.000000	96.962886
869.000000	97.050587
868.000000	97.147221
867.000000	97.248690
866.000000	97.347273
865.000000	97.436668
864.000000	97.519318
863.000000	97.603916
862.000000	97.693816
861.000000	97.782995
860.000000	97.865192
859.000000	97.941111
858.000000	98.013915
857.000000	98.083050
856.000000	98.146356
855.000000	98.204334
854.000000	98.258905
853.000000	98.310994
852.000000	98.361809
851.000000	98.412985
850.000000	98.462705
849.000000	98.505294
848.000000	98.537997
847.000000	98.565092
846.000000	98.591571
845.000000	98.615133
844.000000	98.628704
843.000000	98.629742
842.000000	98.622899
841.000000	98.613062
840.000000	98.598970
839.000000	98.575349
838.000000	98.539985
837.000000	98.497150
836.000000	98.453956
835.000000	98.414203
834.000000	98.377026
833.000000	98.342164
832.000000	98.314256
831.000000	98.298701
830.000000	98.294324
829.000000	98.295099
828.000000	98.300297
827.000000	98.317375
826.000000	98.350275
825.000000	98.388067
824.000000	98.411335
823.000000	98.410648
822.000000	98.395120
821.000000	98.381349
820.000000	98.376452
819.000000	98.373024
818.000000	98.358109
817.000000	98.324497
816.000000	98.273096
815.000000	98.206310
814.000000	98.121101
813.000000	98.008115
812.000000	97.855609
811.000000	97.654416
810.000000	97.402001
809.000000	97.103185
808.000000	96.765657
807.000000	96.394159
806.000000	95.991211
805.000000	95.565211
804.000000	95.135253
803.000000	94.724405
802.000000	94.349991
801.000000	94.024612
800.000000	93.763045
799.000000	93.579282
798.000000	93.476871
797.000000	93.449033
796.000000	93.485566
795.000000	93.570888
794.000000	93.679965
793.000000	93.789305
792.000000	93.891261
791.000000	93.987006
790.000000	94.067504
789.000000	94.113332
788.000000	94.113529
787.000000	94.073822
786.000000	94.004611
785.000000	93.909889
784.000000	93.790221
783.000000	93.649119
782.000000	93.494885
781.000000	93.343068
780.000000	93.217748
779.000000	93.142369
778.000000	93.126921
777.000000	93.168657
776.000000	93.262027
775.000000	93.399047
774.000000	93.563730
773.000000	93.738179
772.000000	93.912808
771.000000	94.080683
770.000000	94.226787
769.000000	94.337479
768.000000	94.419187
767.000000	94.493075
766.000000	94.569444
765.000000	94.640082
764.000000	94.697633
763.000000	94.748475
762.000000	94.801479
761.000000	94.856256
760.000000	94.909451
759.000000	94.963410
758.000000	95.022186
757.000000	95.085913
756.000000	95.153550
755.000000	95.224444
754.000000	95.294509
753.000000	95.359209
752.000000	95.423486
751.000000	95.499481
750.000000	95.589141
749.000000	95.677150
748.000000	95.747781
747.000000	95.803230
746.000000	95.859231
745.000000	95.927031
744.000000	96.005685
743.000000	96.088914
742.000000	96.173872
741.000000	96.264036
740.000000	96.366153
739.000000	96.482806
738.000000	96.606743
737.000000	96.725427
736.000000	96.832199
735.000000	96.929024
734.000000	97.017512
733.000000	97.091830
732.000000	97.143356
731.000000	97.170691
730.000000	97.183144
729.000000	97.194750
728.000000	97.214993
727.000000	97.244324
726.000000	97.278512
725.000000	97.316846
724.000000	97.363217
723.000000	97.418731
722.000000	97.478215
721.000000	97.537221
720.000000	97.597870
719.000000	97.663018
718.000000	97.728870
717.000000	97.789086
716.000000	97.842338
715.000000	97.890072
714.000000	97.930744
713.000000	97.962781
712.000000	97.989919
711.000000	98.016219
710.000000	98.038277
709.000000	98.049893
708.000000	98.052350
707.000000	98.051576
706.000000	98.045796
705.000000	98.024431
704.000000	97.979642
703.000000	97.911248
702.000000	97.819064
701.000000	97.696508
700.000000	97.533441
699.000000	97.323276
698.000000	97.073081
697.000000	96.815376
696.000000	96.604748
695.000000	96.488922
694.000000	96.480255
693.000000	96.557669
692.000000	96.689797
691.000000	96.848088
690.000000	97.004369
689.000000	97.135556
688.000000	97.238024
687.000000	97.326844
686.000000	97.415504
685.000000	97.503832
684.000000	97.585291
683.000000	97.654267
682.000000	97.705632
681.000000	97.739424
680.000000	97.768666
679.000000	97.811549
678.000000	97.871882
677.000000	97.935648
676.000000	97.988778
675.000000	98.029851
674.000000	98.064386
673.000000	98.096769
672.000000	98.130535
671.000000	98.167481
670.000000	98.204621
669.000000	98.232833
668.000000	98.250167
667.000000	98.277500
666.000000	98.327284
665.000000	98.387115
664.000000	98.448633
663.000000	98.510170
662.000000	98.563408
661.000000	98.596294
660.000000	98.610601
659.000000	98.623298
658.000000	98.646087
657.000000	98.672358
656.000000	98.686861
655.000000	98.678122
654.000000	98.641646
653.000000	98.586263
652.000000	98.541106
651.000000	98.539778
650.000000	98.587111
649.000000	98.652983
648.000000	98.706199
647.000000	98.743564
646.000000	98.780192
645.000000	98.827746
644.000000	98.892844
643.000000	98.980677
642.000000	99.082884
641.000000	99.172184
640.000000	99.224375
639.000000	99.240388
638.000000	99.239207
637.000000	99.237753
636.000000	99.249227
635.000000	99.289105
634.000000	99.360351
633.000000	99.437984
632.000000	99.487141
631.000000	99.495349
630.000000	99.480893
629.000000	99.473502
628.000000	99.494842
627.000000	99.552179
626.000000	99.636309
625.000000	99.729034
624.000000	99.821114
623.000000	99.914094
622.000000	99.998381
621.000000	100.045539
620.000000	100.036122
619.000000	99.987507
618.000000	99.941771
617.000000	99.924967
616.000000	99.933860
615.000000	99.955724
614.000000	99.978957
613.000000	99.991097
612.000000	99.986215
611.000000	99.974053
610.000000	99.967597
609.000000	99.961527
608.000000	99.938443
607.000000	99.896239
606.000000	99.854239
605.000000	99.828691
604.000000	99.814178
603.000000	99.794392
602.000000	99.763690
601.000000	99.734021
600.000000	99.722910
599.000000	99.734772
598.000000	99.753830
597.000000	99.759697
596.000000	99.745323
595.000000	99.712469
594.000000	99.661546
593.000000	99.604413
592.000000	99.581319
591.000000	99.631955
590.000000	99.736508
589.000000	99.818526
588.000000	99.825694
587.000000	99.780949
586.000000	99.743909
585.000000	99.738352
584.000000	99.738106
583.000000	99.713868
582.000000	99.670253
581.000000	99.643608
580.000000	99.678739
579.000000	99.794507
578.000000	99.952343
577.000000	100.075957
576.000000	100.117807
575.000000	100.093855
574.000000	100.052238
573.000000	100.019007
572.000000	99.993398
571.000000	99.979380
570.000000	99.988823
569.000000	100.021609
568.000000	100.064209
567.000000	100.102468
566.000000	100.126792
565.000000	100.132829
564.000000	100.120605
563.000000	100.083734
562.000000	100.003200
561.000000	99.873579
560.000000	99.734684
559.000000	99.648970
558.000000	99.637196
557.000000	99.668872
556.000000	99.719436
555.000000	99.786948
554.000000	99.847123
553.000000	99.859028
552.000000	99.831018
551.000000	99.820731
550.000000	99.845512
