PE IR       SUBTECH     SPECTRUM    ASCII       PEDS        4.00        
   -1
BH1 8-7 26 50_1.asc
24/05/14
12:16:12.00
24/05/14
12:18:13.00
Administrator
?品 028 用? Administrator 日期 Tuesday, May 14 2024
550.000000
#HDR
-1
-1
#GR
cm-1
%T
1.0
0.0
4000.000000
-1.000000
3451
8
100.801965
88.291841
#DATA
4000.000000	100.713073
3999.000000	100.712758
3998.000000	100.712387
3997.000000	100.711996
3996.000000	100.711656
3995.000000	100.711396
3994.000000	100.711130
3993.000000	100.710729
3992.000000	100.710072
3991.000000	100.709139
3990.000000	100.708042
3989.000000	100.706924
3988.000000	100.705897
3987.000000	100.705025
3986.000000	100.704309
3985.000000	100.703721
3984.000000	100.703238
3983.000000	100.702827
3982.000000	100.702427
3981.000000	100.701994
3980.000000	100.701538
3979.000000	100.701075
3978.000000	100.700582
3977.000000	100.700038
3976.000000	100.699489
3975.000000	100.699047
3974.000000	100.698794
3973.000000	100.698693
3972.000000	100.698608
3971.000000	100.698414
3970.000000	100.698104
3969.000000	100.697785
3968.000000	100.697576
3967.000000	100.697481
3966.000000	100.697385
3965.000000	100.697174
3964.000000	100.696867
3963.000000	100.696595
3962.000000	100.696469
3961.000000	100.696480
3960.000000	100.696516
3959.000000	100.696444
3958.000000	100.696213
3957.000000	100.695877
3956.000000	100.695575
3955.000000	100.695417
3954.000000	100.695389
3953.000000	100.695356
3952.000000	100.695185
3951.000000	100.694867
3950.000000	100.694577
3949.000000	100.694550
3948.000000	100.694891
3947.000000	100.695525
3946.000000	100.696240
3945.000000	100.696820
3944.000000	100.697101
3943.000000	100.697001
3942.000000	100.696582
3941.000000	100.696079
3940.000000	100.695803
3939.000000	100.695937
3938.000000	100.696399
3937.000000	100.696885
3936.000000	100.697150
3935.000000	100.697167
3934.000000	100.697048
3933.000000	100.696854
3932.000000	100.696602
3931.000000	100.696419
3930.000000	100.696553
3929.000000	100.697146
3928.000000	100.697990
3927.000000	100.698509
3926.000000	100.698151
3925.000000	100.696938
3924.000000	100.695632
3923.000000	100.695132
3922.000000	100.695680
3921.000000	100.696677
3920.000000	100.697238
3919.000000	100.696928
3918.000000	100.696056
3917.000000	100.695239
3916.000000	100.694684
3915.000000	100.694000
3914.000000	100.692681
3913.000000	100.690705
3912.000000	100.688649
3911.000000	100.687177
3910.000000	100.686531
3909.000000	100.686573
3908.000000	100.687267
3907.000000	100.688907
3906.000000	100.691777
3905.000000	100.695741
3904.000000	100.700180
3903.000000	100.704169
3902.000000	100.706600
3901.000000	100.706471
3900.000000	100.703562
3899.000000	100.698854
3898.000000	100.694138
3897.000000	100.691017
3896.000000	100.690109
3895.000000	100.690973
3894.000000	100.692412
3893.000000	100.692944
3892.000000	100.691616
3891.000000	100.688699
3890.000000	100.685626
3889.000000	100.683980
3888.000000	100.684277
3887.000000	100.685646
3886.000000	100.686724
3885.000000	100.687218
3884.000000	100.688186
3883.000000	100.690466
3882.000000	100.693409
3881.000000	100.695491
3880.000000	100.695997
3879.000000	100.695583
3878.000000	100.695251
3877.000000	100.695189
3876.000000	100.694779
3875.000000	100.693562
3874.000000	100.691879
3873.000000	100.690537
3872.000000	100.690091
3871.000000	100.690538
3870.000000	100.691391
3869.000000	100.691985
3868.000000	100.691981
3867.000000	100.691522
3866.000000	100.690997
3865.000000	100.690777
3864.000000	100.690917
3863.000000	100.691027
3862.000000	100.690641
3861.000000	100.689793
3860.000000	100.689166
3859.000000	100.689505
3858.000000	100.690910
3857.000000	100.692640
3856.000000	100.693607
3855.000000	100.693047
3854.000000	100.690970
3853.000000	100.688402
3852.000000	100.686712
3851.000000	100.686559
3850.000000	100.687514
3849.000000	100.688407
3848.000000	100.688428
3847.000000	100.687773
3846.000000	100.687206
3845.000000	100.687084
3844.000000	100.686876
3843.000000	100.685750
3842.000000	100.683490
3841.000000	100.680781
3840.000000	100.678836
3839.000000	100.678685
3838.000000	100.680554
3837.000000	100.683656
3836.000000	100.686619
3835.000000	100.688179
3834.000000	100.687713
3833.000000	100.685840
3832.000000	100.684406
3831.000000	100.685118
3830.000000	100.688061
3829.000000	100.691648
3828.000000	100.694006
3827.000000	100.694656
3826.000000	100.694921
3825.000000	100.696606
3824.000000	100.700386
3823.000000	100.705205
3822.000000	100.708880
3821.000000	100.709628
3820.000000	100.707172
3819.000000	100.702289
3818.000000	100.696027
3817.000000	100.689824
3816.000000	100.685564
3815.000000	100.684231
3814.000000	100.685047
3813.000000	100.686428
3812.000000	100.687225
3811.000000	100.687160
3810.000000	100.686332
3809.000000	100.684607
3808.000000	100.682042
3807.000000	100.679760
3806.000000	100.679432
3805.000000	100.681694
3804.000000	100.685434
3803.000000	100.688547
3802.000000	100.689565
3801.000000	100.688676
3800.000000	100.687167
3799.000000	100.686066
3798.000000	100.685359
3797.000000	100.684536
3796.000000	100.683523
3795.000000	100.682720
3794.000000	100.682430
3793.000000	100.682537
3792.000000	100.682692
3791.000000	100.682804
3790.000000	100.683223
3789.000000	100.684336
3788.000000	100.686091
3787.000000	100.687917
3786.000000	100.689137
3785.000000	100.689478
3784.000000	100.689172
3783.000000	100.688549
3782.000000	100.687689
3781.000000	100.686585
3780.000000	100.685541
3779.000000	100.685128
3778.000000	100.685597
3777.000000	100.686544
3776.000000	100.687172
3775.000000	100.686909
3774.000000	100.685812
3773.000000	100.684527
3772.000000	100.683769
3771.000000	100.683791
3770.000000	100.684425
3769.000000	100.685393
3768.000000	100.686477
3767.000000	100.687355
3766.000000	100.687504
3765.000000	100.686616
3764.000000	100.685118
3763.000000	100.683962
3762.000000	100.683623
3761.000000	100.683463
3760.000000	100.682494
3759.000000	100.680880
3758.000000	100.680055
3757.000000	100.681049
3756.000000	100.683485
3755.000000	100.686223
3754.000000	100.688475
3753.000000	100.690005
3752.000000	100.690305
3751.000000	100.688369
3750.000000	100.683938
3749.000000	100.678452
3748.000000	100.673909
3747.000000	100.670717
3746.000000	100.667708
3745.000000	100.664345
3744.000000	100.661516
3743.000000	100.660602
3742.000000	100.662357
3741.000000	100.665018
3740.000000	100.665294
3739.000000	100.661901
3738.000000	100.656742
3737.000000	100.652767
3736.000000	100.651064
3735.000000	100.650542
3734.000000	100.649637
3733.000000	100.647722
3732.000000	100.645290
3731.000000	100.643591
3730.000000	100.643972
3729.000000	100.646680
3728.000000	100.650489
3727.000000	100.653728
3726.000000	100.655482
3725.000000	100.655761
3724.000000	100.654469
3723.000000	100.650792
3722.000000	100.644000
3721.000000	100.634652
3720.000000	100.624456
3719.000000	100.614936
3718.000000	100.607062
3717.000000	100.601855
3716.000000	100.600163
3715.000000	100.601235
3714.000000	100.601605
3713.000000	100.596646
3712.000000	100.584841
3711.000000	100.570337
3710.000000	100.558792
3709.000000	100.551446
3708.000000	100.545694
3707.000000	100.539030
3706.000000	100.530876
3705.000000	100.521970
3704.000000	100.513340
3703.000000	100.505802
3702.000000	100.499517
3701.000000	100.493750
3700.000000	100.487792
3699.000000	100.482289
3698.000000	100.478860
3697.000000	100.478356
3696.000000	100.479819
3695.000000	100.481312
3694.000000	100.481584
3693.000000	100.480686
3692.000000	100.479648
3691.000000	100.480080
3690.000000	100.483308
3689.000000	100.488401
3688.000000	100.491958
3687.000000	100.491960
3686.000000	100.489760
3685.000000	100.487668
3684.000000	100.486955
3683.000000	100.487621
3682.000000	100.488461
3681.000000	100.487522
3680.000000	100.483150
3679.000000	100.475009
3678.000000	100.464355
3677.000000	100.453999
3676.000000	100.447124
3675.000000	100.444047
3674.000000	100.441681
3673.000000	100.437684
3672.000000	100.432009
3671.000000	100.425934
3670.000000	100.421261
3669.000000	100.418728
3668.000000	100.417140
3667.000000	100.414771
3666.000000	100.410616
3665.000000	100.404775
3664.000000	100.398508
3663.000000	100.393491
3662.000000	100.390659
3661.000000	100.389650
3660.000000	100.389319
3659.000000	100.388622
3658.000000	100.386957
3657.000000	100.384269
3656.000000	100.381233
3655.000000	100.379304
3654.000000	100.380008
3653.000000	100.383374
3652.000000	100.386926
3651.000000	100.386845
3650.000000	100.380959
3649.000000	100.371117
3648.000000	100.361356
3647.000000	100.353748
3646.000000	100.347866
3645.000000	100.342654
3644.000000	100.337402
3643.000000	100.331825
3642.000000	100.326216
3641.000000	100.321282
3640.000000	100.317591
3639.000000	100.315215
3638.000000	100.314020
3637.000000	100.314031
3636.000000	100.315069
3635.000000	100.316165
3634.000000	100.315889
3633.000000	100.313450
3632.000000	100.309110
3631.000000	100.303503
3630.000000	100.297325
3629.000000	100.291288
3628.000000	100.285127
3627.000000	100.277676
3626.000000	100.268903
3625.000000	100.259955
3624.000000	100.252435
3623.000000	100.247946
3622.000000	100.246738
3621.000000	100.247132
3620.000000	100.246995
3619.000000	100.245861
3618.000000	100.244869
3617.000000	100.244999
3616.000000	100.246189
3615.000000	100.247977
3614.000000	100.250438
3613.000000	100.254008
3612.000000	100.258237
3611.000000	100.261651
3610.000000	100.263392
3609.000000	100.264332
3608.000000	100.265775
3607.000000	100.267121
3606.000000	100.266257
3605.000000	100.262346
3604.000000	100.257141
3603.000000	100.253607
3602.000000	100.253507
3601.000000	100.256489
3600.000000	100.260735
3599.000000	100.263990
3598.000000	100.264456
3597.000000	100.261739
3596.000000	100.257172
3595.000000	100.252804
3594.000000	100.249395
3593.000000	100.246016
3592.000000	100.241907
3591.000000	100.237791
3590.000000	100.235289
3589.000000	100.235532
3588.000000	100.238281
3587.000000	100.241769
3586.000000	100.243649
3585.000000	100.242650
3584.000000	100.239160
3583.000000	100.234341
3582.000000	100.229277
3581.000000	100.224829
3580.000000	100.221748
3579.000000	100.220467
3578.000000	100.220788
3577.000000	100.222023
3576.000000	100.223591
3575.000000	100.225267
3574.000000	100.226819
3573.000000	100.227792
3572.000000	100.227995
3571.000000	100.227873
3570.000000	100.227955
3569.000000	100.227977
3568.000000	100.227085
3567.000000	100.225122
3566.000000	100.223019
3565.000000	100.221542
3564.000000	100.220526
3563.000000	100.219377
3562.000000	100.217813
3561.000000	100.215932
3560.000000	100.213662
3559.000000	100.210514
3558.000000	100.206267
3557.000000	100.201717
3556.000000	100.198371
3555.000000	100.197249
3554.000000	100.198133
3553.000000	100.199994
3552.000000	100.201858
3551.000000	100.203156
3550.000000	100.203454
3549.000000	100.202396
3548.000000	100.200127
3547.000000	100.197397
3546.000000	100.194955
3545.000000	100.192913
3544.000000	100.191030
3543.000000	100.189322
3542.000000	100.187949
3541.000000	100.186807
3540.000000	100.185750
3539.000000	100.185003
3538.000000	100.184851
3537.000000	100.184851
3536.000000	100.183858
3535.000000	100.181132
3534.000000	100.177087
3533.000000	100.172972
3532.000000	100.169791
3531.000000	100.167715
3530.000000	100.166362
3529.000000	100.165292
3528.000000	100.164326
3527.000000	100.163541
3526.000000	100.163051
3525.000000	100.162830
3524.000000	100.162696
3523.000000	100.162415
3522.000000	100.161788
3521.000000	100.160700
3520.000000	100.159146
3519.000000	100.157298
3518.000000	100.155522
3517.000000	100.154208
3516.000000	100.153463
3515.000000	100.152942
3514.000000	100.152031
3513.000000	100.150333
3512.000000	100.147977
3511.000000	100.145505
3510.000000	100.143366
3509.000000	100.141581
3508.000000	100.139878
3507.000000	100.138036
3506.000000	100.136084
3505.000000	100.134224
3504.000000	100.132620
3503.000000	100.131234
3502.000000	100.129885
3501.000000	100.128429
3500.000000	100.126876
3499.000000	100.125311
3498.000000	100.123773
3497.000000	100.122231
3496.000000	100.120649
3495.000000	100.119022
3494.000000	100.117369
3493.000000	100.115704
3492.000000	100.114043
3491.000000	100.112401
3490.000000	100.110783
3489.000000	100.109177
3488.000000	100.107565
3487.000000	100.105932
3486.000000	100.104272
3485.000000	100.102587
3484.000000	100.100884
3483.000000	100.099164
3482.000000	100.097426
3481.000000	100.095664
3480.000000	100.093877
3479.000000	100.092069
3478.000000	100.090246
3477.000000	100.088417
3476.000000	100.086586
3475.000000	100.084757
3474.000000	100.082931
3473.000000	100.081108
3472.000000	100.079288
3471.000000	100.077472
3470.000000	100.075654
3469.000000	100.073814
3468.000000	100.071933
3467.000000	100.070049
3466.000000	100.068247
3465.000000	100.066571
3464.000000	100.064942
3463.000000	100.063248
3462.000000	100.061497
3461.000000	100.059785
3460.000000	100.058103
3459.000000	100.056286
3458.000000	100.054198
3457.000000	100.051892
3456.000000	100.049507
3455.000000	100.047098
3454.000000	100.044676
3453.000000	100.042399
3452.000000	100.040597
3451.000000	100.039540
3450.000000	100.039193
3449.000000	100.039100
3448.000000	100.038515
3447.000000	100.036852
3446.000000	100.034044
3445.000000	100.030598
3444.000000	100.027319
3443.000000	100.024785
3442.000000	100.023055
3441.000000	100.021692
3440.000000	100.020120
3439.000000	100.018150
3438.000000	100.016145
3437.000000	100.014564
3436.000000	100.013359
3435.000000	100.011947
3434.000000	100.009852
3433.000000	100.007250
3432.000000	100.004754
3431.000000	100.002728
3430.000000	100.001067
3429.000000	99.999608
3428.000000	99.998485
3427.000000	99.997899
3426.000000	99.997679
3425.000000	99.997376
3424.000000	99.996782
3423.000000	99.996199
3422.000000	99.996056
3421.000000	99.996283
3420.000000	99.996185
3419.000000	99.995083
3418.000000	99.992976
3417.000000	99.990544
3416.000000	99.988548
3415.000000	99.987268
3414.000000	99.986526
3413.000000	99.986024
3412.000000	99.985493
3411.000000	99.984606
3410.000000	99.983090
3409.000000	99.981156
3408.000000	99.979648
3407.000000	99.979339
3406.000000	99.980121
3405.000000	99.981060
3404.000000	99.981347
3403.000000	99.981083
3402.000000	99.980835
3401.000000	99.980712
3400.000000	99.980239
3399.000000	99.979103
3398.000000	99.977581
3397.000000	99.976188
3396.000000	99.975166
3395.000000	99.974526
3394.000000	99.974369
3393.000000	99.974833
3392.000000	99.975742
3391.000000	99.976543
3390.000000	99.976719
3389.000000	99.976169
3388.000000	99.975186
3387.000000	99.974273
3386.000000	99.973914
3385.000000	99.974357
3384.000000	99.975468
3383.000000	99.976770
3382.000000	99.977737
3381.000000	99.978142
3380.000000	99.978121
3379.000000	99.977990
3378.000000	99.977925
3377.000000	99.977833
3376.000000	99.977592
3375.000000	99.977434
3374.000000	99.977929
3373.000000	99.979426
3372.000000	99.981551
3371.000000	99.983415
3370.000000	99.984384
3369.000000	99.984495
3368.000000	99.984280
3367.000000	99.984446
3366.000000	99.985591
3365.000000	99.987830
3364.000000	99.990399
3363.000000	99.992007
3362.000000	99.991950
3361.000000	99.990710
3360.000000	99.989390
3359.000000	99.988677
3358.000000	99.988620
3357.000000	99.989152
3356.000000	99.990327
3355.000000	99.992105
3354.000000	99.994326
3353.000000	99.996943
3352.000000	99.999941
3351.000000	100.003020
3350.000000	100.005790
3349.000000	100.008318
3348.000000	100.010995
3347.000000	100.013652
3346.000000	100.015317
3345.000000	100.015223
3344.000000	100.013715
3343.000000	100.011878
3342.000000	100.010377
3341.000000	100.009048
3340.000000	100.007692
3339.000000	100.006776
3338.000000	100.007049
3337.000000	100.008618
3336.000000	100.010656
3335.000000	100.012230
3334.000000	100.013375
3333.000000	100.015078
3332.000000	100.018181
3331.000000	100.022427
3330.000000	100.026718
3329.000000	100.030260
3328.000000	100.033166
3327.000000	100.035804
3326.000000	100.037906
3325.000000	100.038751
3324.000000	100.038191
3323.000000	100.037150
3322.000000	100.036913
3321.000000	100.038031
3320.000000	100.040116
3319.000000	100.042457
3318.000000	100.044549
3317.000000	100.046059
3316.000000	100.046657
3315.000000	100.046263
3314.000000	100.045461
3313.000000	100.045361
3312.000000	100.046756
3311.000000	100.049511
3310.000000	100.052778
3309.000000	100.055781
3308.000000	100.058307
3307.000000	100.060436
3306.000000	100.062113
3305.000000	100.063191
3304.000000	100.063758
3303.000000	100.064232
3302.000000	100.065112
3301.000000	100.066691
3300.000000	100.068951
3299.000000	100.071511
3298.000000	100.073731
3297.000000	100.075166
3296.000000	100.076050
3295.000000	100.077238
3294.000000	100.079404
3293.000000	100.082370
3292.000000	100.085250
3291.000000	100.087389
3290.000000	100.088927
3289.000000	100.090378
3288.000000	100.091951
3287.000000	100.093476
3286.000000	100.094787
3285.000000	100.095909
3284.000000	100.096938
3283.000000	100.097968
3282.000000	100.099139
3281.000000	100.100596
3280.000000	100.102372
3279.000000	100.104359
3278.000000	100.106277
3277.000000	100.107661
3276.000000	100.108117
3275.000000	100.107843
3274.000000	100.107731
3273.000000	100.108580
3272.000000	100.110302
3271.000000	100.112179
3270.000000	100.113829
3269.000000	100.115488
3268.000000	100.117382
3267.000000	100.119317
3266.000000	100.120991
3265.000000	100.122324
3264.000000	100.123355
3263.000000	100.124194
3262.000000	100.125265
3261.000000	100.127173
3260.000000	100.130058
3259.000000	100.133339
3258.000000	100.136359
3257.000000	100.139091
3256.000000	100.141844
3255.000000	100.144507
3254.000000	100.146537
3253.000000	100.147654
3252.000000	100.148152
3251.000000	100.148614
3250.000000	100.149563
3249.000000	100.151282
3248.000000	100.153657
3247.000000	100.156051
3246.000000	100.157708
3245.000000	100.158478
3244.000000	100.159000
3243.000000	100.160070
3242.000000	100.161828
3241.000000	100.163808
3240.000000	100.165592
3239.000000	100.167263
3238.000000	100.169127
3237.000000	100.171262
3236.000000	100.173462
3235.000000	100.175482
3234.000000	100.177242
3233.000000	100.178831
3232.000000	100.180416
3231.000000	100.182162
3230.000000	100.184170
3229.000000	100.186361
3228.000000	100.188439
3227.000000	100.190096
3226.000000	100.191278
3225.000000	100.192259
3224.000000	100.193412
3223.000000	100.194917
3222.000000	100.196680
3221.000000	100.198425
3220.000000	100.199900
3219.000000	100.201144
3218.000000	100.202575
3217.000000	100.204640
3216.000000	100.207318
3215.000000	100.210058
3214.000000	100.212330
3213.000000	100.214114
3212.000000	100.215748
3211.000000	100.217469
3210.000000	100.219343
3209.000000	100.221554
3208.000000	100.224350
3207.000000	100.227510
3206.000000	100.230147
3205.000000	100.231407
3204.000000	100.231385
3203.000000	100.231253
3202.000000	100.232281
3201.000000	100.234642
3200.000000	100.237178
3199.000000	100.238377
3198.000000	100.237730
3197.000000	100.236250
3196.000000	100.235672
3195.000000	100.237085
3194.000000	100.240401
3193.000000	100.244858
3192.000000	100.249781
3191.000000	100.254825
3190.000000	100.259776
3189.000000	100.264367
3188.000000	100.268215
3187.000000	100.270869
3186.000000	100.272056
3185.000000	100.272044
3184.000000	100.271759
3183.000000	100.272277
3182.000000	100.274067
3181.000000	100.276806
3180.000000	100.279833
3179.000000	100.282675
3178.000000	100.285110
3177.000000	100.286955
3176.000000	100.288039
3175.000000	100.288400
3174.000000	100.288370
3173.000000	100.288410
3172.000000	100.288973
3171.000000	100.290473
3170.000000	100.293109
3169.000000	100.296528
3168.000000	100.299845
3167.000000	100.302390
3166.000000	100.304436
3165.000000	100.306898
3164.000000	100.310210
3163.000000	100.313764
3162.000000	100.316585
3161.000000	100.318401
3160.000000	100.319738
3159.000000	100.321177
3158.000000	100.322844
3157.000000	100.324680
3156.000000	100.326808
3155.000000	100.329320
3154.000000	100.331896
3153.000000	100.333962
3152.000000	100.335265
3151.000000	100.336077
3150.000000	100.336943
3149.000000	100.338294
3148.000000	100.340236
3147.000000	100.342589
3146.000000	100.344995
3145.000000	100.347132
3144.000000	100.348976
3143.000000	100.350843
3142.000000	100.353072
3141.000000	100.355648
3140.000000	100.358166
3139.000000	100.360282
3138.000000	100.362046
3137.000000	100.363721
3136.000000	100.365432
3135.000000	100.367119
3134.000000	100.368761
3133.000000	100.370465
3132.000000	100.372320
3131.000000	100.374296
3130.000000	100.376313
3129.000000	100.378338
3128.000000	100.380371
3127.000000	100.382375
3126.000000	100.384281
3125.000000	100.386082
3124.000000	100.387846
3123.000000	100.389640
3122.000000	100.391467
3121.000000	100.393297
3120.000000	100.395109
3119.000000	100.396867
3118.000000	100.398525
3117.000000	100.400097
3116.000000	100.401681
3115.000000	100.403357
3114.000000	100.405120
3113.000000	100.406968
3112.000000	100.409010
3111.000000	100.411385
3110.000000	100.414051
3109.000000	100.416708
3108.000000	100.418977
3107.000000	100.420646
3106.000000	100.421754
3105.000000	100.422545
3104.000000	100.423373
3103.000000	100.424585
3102.000000	100.426382
3101.000000	100.428673
3100.000000	100.431043
3099.000000	100.432970
3098.000000	100.434196
3097.000000	100.434881
3096.000000	100.435539
3095.000000	100.436669
3094.000000	100.438438
3093.000000	100.440683
3092.000000	100.443159
3091.000000	100.445761
3090.000000	100.448436
3089.000000	100.450933
3088.000000	100.452827
3087.000000	100.453879
3086.000000	100.454313
3085.000000	100.454656
3084.000000	100.455286
3083.000000	100.456238
3082.000000	100.457392
3081.000000	100.458667
3080.000000	100.460003
3079.000000	100.461273
3078.000000	100.462339
3077.000000	100.463174
3076.000000	100.463857
3075.000000	100.464479
3074.000000	100.465122
3073.000000	100.465945
3072.000000	100.467148
3071.000000	100.468742
3070.000000	100.470425
3069.000000	100.471744
3068.000000	100.472469
3067.000000	100.472781
3066.000000	100.473125
3065.000000	100.473863
3064.000000	100.475077
3063.000000	100.476636
3062.000000	100.478312
3061.000000	100.479841
3060.000000	100.480992
3059.000000	100.481723
3058.000000	100.482239
3057.000000	100.482845
3056.000000	100.483682
3055.000000	100.484594
3054.000000	100.485306
3053.000000	100.485725
3052.000000	100.486040
3051.000000	100.486522
3050.000000	100.487216
3049.000000	100.487893
3048.000000	100.488342
3047.000000	100.488634
3046.000000	100.489014
3045.000000	100.489510
3044.000000	100.489820
3043.000000	100.489757
3042.000000	100.489706
3041.000000	100.490302
3040.000000	100.491607
3039.000000	100.492957
3038.000000	100.493871
3037.000000	100.494872
3036.000000	100.496909
3035.000000	100.499802
3034.000000	100.501652
3033.000000	100.500382
3032.000000	100.495947
3031.000000	100.490995
3030.000000	100.488759
3029.000000	100.490164
3028.000000	100.493248
3027.000000	100.495208
3026.000000	100.495067
3025.000000	100.494124
3024.000000	100.494174
3023.000000	100.495717
3022.000000	100.497753
3021.000000	100.498847
3020.000000	100.498539
3019.000000	100.498131
3018.000000	100.499763
3017.000000	100.503887
3016.000000	100.507797
3015.000000	100.507867
3014.000000	100.503429
3013.000000	100.497529
3012.000000	100.493406
3011.000000	100.491320
3010.000000	100.489598
3009.000000	100.487611
3008.000000	100.486276
3007.000000	100.486150
3006.000000	100.486361
3005.000000	100.485514
3004.000000	100.482801
3003.000000	100.478202
3002.000000	100.472502
3001.000000	100.467390
3000.000000	100.464786
2999.000000	100.465417
2998.000000	100.468025
2997.000000	100.470041
2996.000000	100.469097
2995.000000	100.464452
2994.000000	100.457580
2993.000000	100.451070
2992.000000	100.446052
2991.000000	100.440600
2990.000000	100.431556
2989.000000	100.418383
2988.000000	100.404475
2987.000000	100.393950
2986.000000	100.387344
2985.000000	100.380925
2984.000000	100.369998
2983.000000	100.352592
2982.000000	100.330564
2981.000000	100.308345
2980.000000	100.290790
2979.000000	100.281218
2978.000000	100.280194
2977.000000	100.285714
2976.000000	100.294768
2975.000000	100.305071
2974.000000	100.315672
2973.000000	100.326693
2972.000000	100.339105
2971.000000	100.354417
2970.000000	100.373700
2969.000000	100.396443
2968.000000	100.420563
2967.000000	100.443645
2966.000000	100.463946
2965.000000	100.480528
2964.000000	100.493541
2963.000000	100.504813
2962.000000	100.517249
2961.000000	100.532477
2960.000000	100.549039
2959.000000	100.563307
2958.000000	100.572172
2957.000000	100.574767
2956.000000	100.572499
2955.000000	100.568375
2954.000000	100.565902
2953.000000	100.567303
2952.000000	100.572106
2951.000000	100.577715
2950.000000	100.581546
2949.000000	100.582507
2948.000000	100.580761
2947.000000	100.576978
2946.000000	100.572228
2945.000000	100.568299
2944.000000	100.567644
2943.000000	100.572531
2942.000000	100.583401
2941.000000	100.597597
2940.000000	100.610391
2939.000000	100.618464
2938.000000	100.622428
2937.000000	100.625510
2936.000000	100.630219
2935.000000	100.636922
2934.000000	100.644918
2933.000000	100.653361
2932.000000	100.661459
2931.000000	100.669475
2930.000000	100.679545
2929.000000	100.693471
2928.000000	100.708957
2927.000000	100.720169
2926.000000	100.723370
2925.000000	100.720642
2924.000000	100.716846
2923.000000	100.714280
2922.000000	100.712003
2921.000000	100.709106
2920.000000	100.705839
2919.000000	100.701477
2918.000000	100.693529
2917.000000	100.680311
2916.000000	100.663402
2915.000000	100.646819
2914.000000	100.634013
2913.000000	100.625847
2912.000000	100.620702
2911.000000	100.616055
2910.000000	100.610082
2909.000000	100.602133
2908.000000	100.592183
2907.000000	100.580615
2906.000000	100.568786
2905.000000	100.558913
2904.000000	100.552438
2903.000000	100.548624
2902.000000	100.545416
2901.000000	100.541581
2900.000000	100.537453
2899.000000	100.534094
2898.000000	100.532461
2897.000000	100.533174
2896.000000	100.535931
2895.000000	100.538817
2894.000000	100.539056
2893.000000	100.535391
2892.000000	100.529625
2891.000000	100.525320
2890.000000	100.524550
2889.000000	100.525883
2888.000000	100.525768
2887.000000	100.522438
2886.000000	100.518285
2885.000000	100.517781
2884.000000	100.522890
2883.000000	100.531108
2882.000000	100.538236
2881.000000	100.542497
2880.000000	100.544956
2879.000000	100.546546
2878.000000	100.546307
2877.000000	100.543348
2876.000000	100.539743
2875.000000	100.539991
2874.000000	100.546809
2873.000000	100.557702
2872.000000	100.566525
2871.000000	100.569124
2870.000000	100.566911
2869.000000	100.564601
2868.000000	100.565334
2867.000000	100.569267
2866.000000	100.576049
2865.000000	100.586198
2864.000000	100.599164
2863.000000	100.612088
2862.000000	100.622341
2861.000000	100.630351
2860.000000	100.638388
2859.000000	100.647271
2858.000000	100.655756
2857.000000	100.662599
2856.000000	100.667565
2855.000000	100.670695
2854.000000	100.672156
2853.000000	100.672774
2852.000000	100.673309
2851.000000	100.673061
2850.000000	100.670394
2849.000000	100.664779
2848.000000	100.657350
2847.000000	100.649487
2846.000000	100.641775
2845.000000	100.634235
2844.000000	100.626508
2843.000000	100.617891
2842.000000	100.608472
2841.000000	100.600384
2840.000000	100.596558
2839.000000	100.597694
2838.000000	100.601259
2837.000000	100.603783
2836.000000	100.603483
2835.000000	100.600660
2834.000000	100.596899
2833.000000	100.594571
2832.000000	100.595824
2831.000000	100.600795
2830.000000	100.607045
2829.000000	100.611568
2828.000000	100.613272
2827.000000	100.613237
2826.000000	100.613112
2825.000000	100.613713
2824.000000	100.614741
2823.000000	100.615238
2822.000000	100.614443
2821.000000	100.612537
2820.000000	100.610508
2819.000000	100.609255
2818.000000	100.609119
2817.000000	100.610226
2816.000000	100.612703
2815.000000	100.616347
2814.000000	100.620497
2813.000000	100.624409
2812.000000	100.627450
2811.000000	100.628968
2810.000000	100.628592
2809.000000	100.626887
2808.000000	100.625228
2807.000000	100.624566
2806.000000	100.624540
2805.000000	100.624064
2804.000000	100.622644
2803.000000	100.620972
2802.000000	100.620291
2801.000000	100.621235
2800.000000	100.623339
2799.000000	100.625575
2798.000000	100.627304
2797.000000	100.628577
2796.000000	100.629601
2795.000000	100.630314
2794.000000	100.630633
2793.000000	100.630807
2792.000000	100.631167
2791.000000	100.631679
2790.000000	100.632076
2789.000000	100.632400
2788.000000	100.633097
2787.000000	100.634400
2786.000000	100.635907
2785.000000	100.637052
2784.000000	100.637869
2783.000000	100.639001
2782.000000	100.640927
2781.000000	100.643342
2780.000000	100.645295
2779.000000	100.645900
2778.000000	100.644975
2777.000000	100.643191
2776.000000	100.641647
2775.000000	100.641078
2774.000000	100.641545
2773.000000	100.642708
2772.000000	100.644073
2771.000000	100.644976
2770.000000	100.644742
2769.000000	100.643308
2768.000000	100.641638
2767.000000	100.641139
2766.000000	100.642568
2765.000000	100.645554
2764.000000	100.648911
2763.000000	100.651401
2762.000000	100.652473
2761.000000	100.652574
2760.000000	100.652723
2759.000000	100.653468
2758.000000	100.654393
2757.000000	100.654948
2756.000000	100.655474
2755.000000	100.656909
2754.000000	100.659555
2753.000000	100.662730
2752.000000	100.665696
2751.000000	100.668304
2750.000000	100.670389
2749.000000	100.671181
2748.000000	100.670023
2747.000000	100.667527
2746.000000	100.665429
2745.000000	100.664964
2744.000000	100.665670
2743.000000	100.666059
2742.000000	100.665248
2741.000000	100.663666
2740.000000	100.662220
2739.000000	100.661167
2738.000000	100.660063
2737.000000	100.658624
2736.000000	100.657280
2735.000000	100.656851
2734.000000	100.657968
2733.000000	100.660706
2732.000000	100.664297
2731.000000	100.667183
2730.000000	100.667948
2729.000000	100.666487
2728.000000	100.663961
2727.000000	100.661402
2726.000000	100.658828
2725.000000	100.656233
2724.000000	100.654809
2723.000000	100.656104
2722.000000	100.660090
2721.000000	100.664836
2720.000000	100.668300
2719.000000	100.670025
2718.000000	100.670797
2717.000000	100.671400
2716.000000	100.672205
2715.000000	100.673440
2714.000000	100.675163
2713.000000	100.677049
2712.000000	100.678684
2711.000000	100.680059
2710.000000	100.681384
2709.000000	100.682420
2708.000000	100.682449
2707.000000	100.681110
2706.000000	100.679046
2705.000000	100.677575
2704.000000	100.677742
2703.000000	100.679686
2702.000000	100.682663
2701.000000	100.685479
2700.000000	100.687178
2699.000000	100.687668
2698.000000	100.687767
2697.000000	100.688391
2696.000000	100.689542
2695.000000	100.690179
2694.000000	100.689316
2693.000000	100.687197
2692.000000	100.685256
2691.000000	100.684757
2690.000000	100.685533
2689.000000	100.686162
2688.000000	100.685432
2687.000000	100.683532
2686.000000	100.681726
2685.000000	100.680975
2684.000000	100.681161
2683.000000	100.681582
2682.000000	100.681926
2681.000000	100.682429
2680.000000	100.683280
2679.000000	100.684429
2678.000000	100.685790
2677.000000	100.687125
2676.000000	100.688034
2675.000000	100.688247
2674.000000	100.687955
2673.000000	100.687667
2672.000000	100.687685
2671.000000	100.687888
2670.000000	100.688029
2669.000000	100.688036
2668.000000	100.687927
2667.000000	100.687621
2666.000000	100.687025
2665.000000	100.686222
2664.000000	100.685438
2663.000000	100.684855
2662.000000	100.684507
2661.000000	100.684331
2660.000000	100.684229
2659.000000	100.684101
2658.000000	100.683896
2657.000000	100.683641
2656.000000	100.683388
2655.000000	100.683159
2654.000000	100.682941
2653.000000	100.682721
2652.000000	100.682488
2651.000000	100.682229
2650.000000	100.681937
2649.000000	100.681614
2648.000000	100.681265
2647.000000	100.680903
2646.000000	100.680541
2645.000000	100.680190
2644.000000	100.679849
2643.000000	100.679508
2642.000000	100.679156
2641.000000	100.678791
2640.000000	100.678425
2639.000000	100.678078
2638.000000	100.677757
2637.000000	100.677448
2636.000000	100.677128
2635.000000	100.676780
2634.000000	100.676409
2633.000000	100.676040
2632.000000	100.675695
2631.000000	100.675384
2630.000000	100.675106
2629.000000	100.674863
2628.000000	100.674661
2627.000000	100.674502
2626.000000	100.674382
2625.000000	100.674295
2624.000000	100.674235
2623.000000	100.674200
2622.000000	100.674184
2621.000000	100.674175
2620.000000	100.674162
2619.000000	100.674141
2618.000000	100.674115
2617.000000	100.674087
2616.000000	100.674057
2615.000000	100.674029
2614.000000	100.674000
2613.000000	100.673969
2612.000000	100.673935
2611.000000	100.673903
2610.000000	100.673884
2609.000000	100.673892
2608.000000	100.673931
2607.000000	100.673998
2606.000000	100.674092
2605.000000	100.674225
2604.000000	100.674414
2603.000000	100.674652
2602.000000	100.674894
2601.000000	100.675063
2600.000000	100.675097
2599.000000	100.675003
2598.000000	100.674877
2597.000000	100.674795
2596.000000	100.674779
2595.000000	100.674849
2594.000000	100.675040
2593.000000	100.675378
2592.000000	100.675744
2591.000000	100.675959
2590.000000	100.676032
2589.000000	100.676135
2588.000000	100.676419
2587.000000	100.676847
2586.000000	100.677228
2585.000000	100.677377
2584.000000	100.677258
2583.000000	100.677002
2582.000000	100.676797
2581.000000	100.676738
2580.000000	100.676787
2579.000000	100.676873
2578.000000	100.676976
2577.000000	100.677115
2576.000000	100.677273
2575.000000	100.677411
2574.000000	100.677520
2573.000000	100.677628
2572.000000	100.677762
2571.000000	100.677926
2570.000000	100.678112
2569.000000	100.678303
2568.000000	100.678472
2567.000000	100.678595
2566.000000	100.678663
2565.000000	100.678695
2564.000000	100.678735
2563.000000	100.678829
2562.000000	100.678990
2561.000000	100.679194
2560.000000	100.679389
2559.000000	100.679525
2558.000000	100.679583
2557.000000	100.679588
2556.000000	100.679586
2555.000000	100.679602
2554.000000	100.679637
2553.000000	100.679720
2552.000000	100.679901
2551.000000	100.680187
2550.000000	100.680481
2549.000000	100.680636
2548.000000	100.680564
2547.000000	100.680288
2546.000000	100.679943
2545.000000	100.679719
2544.000000	100.679735
2543.000000	100.679930
2542.000000	100.680118
2541.000000	100.680243
2540.000000	100.680453
2539.000000	100.680805
2538.000000	100.681020
2537.000000	100.680801
2536.000000	100.680303
2535.000000	100.680081
2534.000000	100.680454
2533.000000	100.681151
2532.000000	100.681615
2531.000000	100.681523
2530.000000	100.680855
2529.000000	100.679717
2528.000000	100.678351
2527.000000	100.677140
2526.000000	100.676370
2525.000000	100.676047
2524.000000	100.676079
2523.000000	100.676507
2522.000000	100.677252
2521.000000	100.677894
2520.000000	100.678129
2519.000000	100.678278
2518.000000	100.678918
2517.000000	100.680027
2516.000000	100.680908
2515.000000	100.681120
2514.000000	100.681061
2513.000000	100.681358
2512.000000	100.682007
2511.000000	100.682460
2510.000000	100.682421
2509.000000	100.682157
2508.000000	100.681982
2507.000000	100.681778
2506.000000	100.681188
2505.000000	100.680120
2504.000000	100.678901
2503.000000	100.678052
2502.000000	100.677951
2501.000000	100.678631
2500.000000	100.679802
2499.000000	100.681039
2498.000000	100.682019
2497.000000	100.682624
2496.000000	100.682901
2495.000000	100.682981
2494.000000	100.682951
2493.000000	100.682791
2492.000000	100.682503
2491.000000	100.682314
2490.000000	100.682548
2489.000000	100.683235
2488.000000	100.684014
2487.000000	100.684535
2486.000000	100.684855
2485.000000	100.685228
2484.000000	100.685655
2483.000000	100.685905
2482.000000	100.685892
2481.000000	100.685840
2480.000000	100.686058
2479.000000	100.686606
2478.000000	100.687294
2477.000000	100.687930
2476.000000	100.688519
2475.000000	100.689100
2474.000000	100.689632
2473.000000	100.690070
2472.000000	100.690456
2471.000000	100.690868
2470.000000	100.691329
2469.000000	100.691803
2468.000000	100.692266
2467.000000	100.692728
2466.000000	100.693216
2465.000000	100.693739
2464.000000	100.694277
2463.000000	100.694803
2462.000000	100.695315
2461.000000	100.695847
2460.000000	100.696434
2459.000000	100.697043
2458.000000	100.697587
2457.000000	100.698012
2456.000000	100.698348
2455.000000	100.698705
2454.000000	100.699155
2453.000000	100.699669
2452.000000	100.700151
2451.000000	100.700540
2450.000000	100.700861
2449.000000	100.701205
2448.000000	100.701645
2447.000000	100.702184
2446.000000	100.702786
2445.000000	100.703440
2444.000000	100.704150
2443.000000	100.704871
2442.000000	100.705502
2441.000000	100.705961
2440.000000	100.706226
2439.000000	100.706339
2438.000000	100.706403
2437.000000	100.706559
2436.000000	100.706903
2435.000000	100.707406
2434.000000	100.707933
2433.000000	100.708346
2432.000000	100.708608
2431.000000	100.708748
2430.000000	100.708821
2429.000000	100.708905
2428.000000	100.709061
2427.000000	100.709279
2426.000000	100.709485
2425.000000	100.709651
2424.000000	100.709847
2423.000000	100.710124
2422.000000	100.710429
2421.000000	100.710684
2420.000000	100.710893
2419.000000	100.711114
2418.000000	100.711351
2417.000000	100.711558
2416.000000	100.711708
2415.000000	100.711800
2414.000000	100.711826
2413.000000	100.711808
2412.000000	100.711828
2411.000000	100.711973
2410.000000	100.712237
2409.000000	100.712530
2408.000000	100.712743
2407.000000	100.712828
2406.000000	100.712784
2405.000000	100.712660
2404.000000	100.712554
2403.000000	100.712534
2402.000000	100.712589
2401.000000	100.712652
2400.000000	100.712672
2399.000000	100.712654
2398.000000	100.712624
2397.000000	100.712609
2396.000000	100.712626
2395.000000	100.712672
2394.000000	100.712713
2393.000000	100.712712
2392.000000	100.712679
2391.000000	100.712665
2390.000000	100.712692
2389.000000	100.712730
2388.000000	100.712739
2387.000000	100.712716
2386.000000	100.712688
2385.000000	100.712680
2384.000000	100.712673
2383.000000	100.712638
2382.000000	100.712588
2381.000000	100.712588
2380.000000	100.712693
2379.000000	100.712896
2378.000000	100.713130
2377.000000	100.713314
2376.000000	100.713401
2375.000000	100.713401
2374.000000	100.713391
2373.000000	100.713478
2372.000000	100.713707
2371.000000	100.714010
2370.000000	100.714274
2369.000000	100.714478
2368.000000	100.714699
2367.000000	100.714940
2366.000000	100.715047
2365.000000	100.714916
2364.000000	100.714700
2363.000000	100.714666
2362.000000	100.714872
2361.000000	100.715114
2360.000000	100.715133
2359.000000	100.714873
2358.000000	100.714499
2357.000000	100.714260
2356.000000	100.714305
2355.000000	100.714620
2354.000000	100.715087
2353.000000	100.715551
2352.000000	100.715875
2351.000000	100.715987
2350.000000	100.715954
2349.000000	100.715971
2348.000000	100.716229
2347.000000	100.716728
2346.000000	100.717228
2345.000000	100.717453
2344.000000	100.717354
2343.000000	100.717071
2342.000000	100.716703
2341.000000	100.716287
2340.000000	100.715919
2339.000000	100.715754
2338.000000	100.715875
2337.000000	100.716235
2336.000000	100.716681
2335.000000	100.716980
2334.000000	100.716908
2333.000000	100.716425
2332.000000	100.715712
2331.000000	100.714939
2330.000000	100.714098
2329.000000	100.713171
2328.000000	100.712376
2327.000000	100.712037
2326.000000	100.712250
2325.000000	100.712736
2324.000000	100.713015
2323.000000	100.712745
2322.000000	100.711874
2321.000000	100.710626
2320.000000	100.709406
2319.000000	100.708576
2318.000000	100.708298
2317.000000	100.708528
2316.000000	100.709026
2315.000000	100.709425
2314.000000	100.709456
2313.000000	100.709159
2312.000000	100.708827
2311.000000	100.708627
2310.000000	100.708417
2309.000000	100.708020
2308.000000	100.707518
2307.000000	100.707026
2306.000000	100.706409
2305.000000	100.705514
2304.000000	100.704525
2303.000000	100.703748
2302.000000	100.703143
2301.000000	100.702405
2300.000000	100.701479
2299.000000	100.700687
2298.000000	100.700260
2297.000000	100.700014
2296.000000	100.699604
2295.000000	100.698879
2294.000000	100.697895
2293.000000	100.696793
2292.000000	100.695847
2291.000000	100.695378
2290.000000	100.695419
2289.000000	100.695573
2288.000000	100.695391
2287.000000	100.694807
2286.000000	100.694049
2285.000000	100.693309
2284.000000	100.692687
2283.000000	100.692266
2282.000000	100.692024
2281.000000	100.691819
2280.000000	100.691666
2279.000000	100.691797
2278.000000	100.692211
2277.000000	100.692438
2276.000000	100.692078
2275.000000	100.691335
2274.000000	100.690694
2273.000000	100.690231
2272.000000	100.689658
2271.000000	100.688864
2270.000000	100.688002
2269.000000	100.687155
2268.000000	100.686347
2267.000000	100.685795
2266.000000	100.685737
2265.000000	100.686004
2264.000000	100.686096
2263.000000	100.685779
2262.000000	100.685282
2261.000000	100.684847
2260.000000	100.684404
2259.000000	100.683868
2258.000000	100.683462
2257.000000	100.683461
2256.000000	100.683840
2255.000000	100.684422
2254.000000	100.685156
2253.000000	100.685915
2252.000000	100.686242
2251.000000	100.685743
2250.000000	100.684634
2249.000000	100.683599
2248.000000	100.683013
2247.000000	100.682625
2246.000000	100.682046
2245.000000	100.681290
2244.000000	100.680700
2243.000000	100.680526
2242.000000	100.680688
2241.000000	100.680835
2240.000000	100.680567
2239.000000	100.679717
2238.000000	100.678549
2237.000000	100.677665
2236.000000	100.677623
2235.000000	100.678602
2234.000000	100.680329
2233.000000	100.682200
2232.000000	100.683574
2231.000000	100.684086
2230.000000	100.683788
2229.000000	100.683099
2228.000000	100.682560
2227.000000	100.682489
2226.000000	100.682738
2225.000000	100.682790
2224.000000	100.682189
2223.000000	100.680969
2222.000000	100.679621
2221.000000	100.678658
2220.000000	100.678292
2219.000000	100.678508
2218.000000	100.679206
2217.000000	100.680177
2216.000000	100.681159
2215.000000	100.682059
2214.000000	100.682928
2213.000000	100.683646
2212.000000	100.683904
2211.000000	100.683745
2210.000000	100.683805
2209.000000	100.684655
2208.000000	100.685990
2207.000000	100.686830
2206.000000	100.686551
2205.000000	100.685444
2204.000000	100.684366
2203.000000	100.684087
2202.000000	100.684972
2201.000000	100.686934
2200.000000	100.689515
2199.000000	100.692193
2198.000000	100.694673
2197.000000	100.696801
2196.000000	100.698278
2195.000000	100.698738
2194.000000	100.698136
2193.000000	100.696926
2192.000000	100.695717
2191.000000	100.694815
2190.000000	100.694126
2189.000000	100.693403
2188.000000	100.692655
2187.000000	100.692391
2186.000000	100.693233
2185.000000	100.695117
2184.000000	100.697085
2183.000000	100.698215
2182.000000	100.698614
2181.000000	100.699052
2180.000000	100.699772
2179.000000	100.700145
2178.000000	100.699575
2177.000000	100.698195
2176.000000	100.696536
2175.000000	100.695004
2174.000000	100.693867
2173.000000	100.693384
2172.000000	100.693576
2171.000000	100.694081
2170.000000	100.694485
2169.000000	100.694706
2168.000000	100.694888
2167.000000	100.695118
2166.000000	100.695403
2165.000000	100.695752
2164.000000	100.696098
2163.000000	100.696317
2162.000000	100.696420
2161.000000	100.696504
2160.000000	100.696392
2159.000000	100.695644
2158.000000	100.694188
2157.000000	100.692714
2156.000000	100.692055
2155.000000	100.692254
2154.000000	100.692643
2153.000000	100.692776
2152.000000	100.692959
2151.000000	100.693608
2150.000000	100.694565
2149.000000	100.695248
2148.000000	100.695339
2147.000000	100.695070
2146.000000	100.694883
2145.000000	100.694951
2144.000000	100.695101
2143.000000	100.695150
2142.000000	100.695151
2141.000000	100.695268
2140.000000	100.695513
2139.000000	100.695745
2138.000000	100.695881
2137.000000	100.695995
2136.000000	100.696198
2135.000000	100.696495
2134.000000	100.696796
2133.000000	100.697027
2132.000000	100.697212
2131.000000	100.697424
2130.000000	100.697714
2129.000000	100.698093
2128.000000	100.698534
2127.000000	100.698977
2126.000000	100.699357
2125.000000	100.699677
2124.000000	100.700008
2123.000000	100.700410
2122.000000	100.700882
2121.000000	100.701381
2120.000000	100.701860
2119.000000	100.702272
2118.000000	100.702591
2117.000000	100.702858
2116.000000	100.703161
2115.000000	100.703536
2114.000000	100.703917
2113.000000	100.704229
2112.000000	100.704483
2111.000000	100.704773
2110.000000	100.705183
2109.000000	100.705736
2108.000000	100.706384
2107.000000	100.706998
2106.000000	100.707429
2105.000000	100.707610
2104.000000	100.707641
2103.000000	100.707719
2102.000000	100.707944
2101.000000	100.708273
2100.000000	100.708645
2099.000000	100.709088
2098.000000	100.709636
2097.000000	100.710215
2096.000000	100.710708
2095.000000	100.711089
2094.000000	100.711395
2093.000000	100.711606
2092.000000	100.711651
2091.000000	100.711526
2090.000000	100.711324
2089.000000	100.711153
2088.000000	100.711096
2087.000000	100.711225
2086.000000	100.711554
2085.000000	100.711937
2084.000000	100.712103
2083.000000	100.711875
2082.000000	100.711357
2081.000000	100.710902
2080.000000	100.710830
2079.000000	100.711177
2078.000000	100.711674
2077.000000	100.711972
2076.000000	100.711932
2075.000000	100.711719
2074.000000	100.711668
2073.000000	100.712038
2072.000000	100.712804
2071.000000	100.713620
2070.000000	100.713999
2069.000000	100.713653
2068.000000	100.712687
2067.000000	100.711497
2066.000000	100.710503
2065.000000	100.709998
2064.000000	100.710149
2063.000000	100.710894
2062.000000	100.711762
2061.000000	100.712036
2060.000000	100.711308
2059.000000	100.709882
2058.000000	100.708588
2057.000000	100.708077
2056.000000	100.708323
2055.000000	100.708755
2054.000000	100.708791
2053.000000	100.708291
2052.000000	100.707554
2051.000000	100.706932
2050.000000	100.706532
2049.000000	100.706292
2048.000000	100.706178
2047.000000	100.706053
2046.000000	100.705441
2045.000000	100.703769
2044.000000	100.701008
2043.000000	100.697933
2042.000000	100.695548
2041.000000	100.694276
2040.000000	100.693804
2039.000000	100.693530
2038.000000	100.693010
2037.000000	100.692032
2036.000000	100.690587
2035.000000	100.688937
2034.000000	100.687554
2033.000000	100.686784
2032.000000	100.686531
2031.000000	100.686352
2030.000000	100.685890
2029.000000	100.685207
2028.000000	100.684700
2027.000000	100.684723
2026.000000	100.685284
2025.000000	100.686019
2024.000000	100.686377
2023.000000	100.685923
2022.000000	100.684653
2021.000000	100.683104
2020.000000	100.682018
2019.000000	100.681654
2018.000000	100.681482
2017.000000	100.680706
2016.000000	100.679122
2015.000000	100.677304
2014.000000	100.675990
2013.000000	100.675429
2012.000000	100.675351
2011.000000	100.675295
2010.000000	100.674796
2009.000000	100.673443
2008.000000	100.671144
2007.000000	100.668434
2006.000000	100.666258
2005.000000	100.665210
2004.000000	100.665086
2003.000000	100.665225
2002.000000	100.665202
2001.000000	100.664993
2000.000000	100.664594
1999.000000	100.663867
1998.000000	100.662859
1997.000000	100.661943
1996.000000	100.661433
1995.000000	100.661244
1994.000000	100.661085
1993.000000	100.660813
1992.000000	100.660369
1991.000000	100.659561
1990.000000	100.658303
1989.000000	100.657019
1988.000000	100.656369
1987.000000	100.656455
1986.000000	100.656616
1985.000000	100.656224
1984.000000	100.655468
1983.000000	100.655027
1982.000000	100.655196
1981.000000	100.655700
1980.000000	100.656252
1979.000000	100.656902
1978.000000	100.657728
1977.000000	100.658479
1976.000000	100.658737
1975.000000	100.658314
1974.000000	100.657353
1973.000000	100.656173
1972.000000	100.655124
1971.000000	100.654521
1970.000000	100.654561
1969.000000	100.655212
1968.000000	100.656143
1967.000000	100.656806
1966.000000	100.656788
1965.000000	100.656106
1964.000000	100.655155
1963.000000	100.654378
1962.000000	100.653987
1961.000000	100.653995
1960.000000	100.654359
1959.000000	100.654984
1958.000000	100.655623
1957.000000	100.655948
1956.000000	100.655769
1955.000000	100.655139
1954.000000	100.654257
1953.000000	100.653371
1952.000000	100.652745
1951.000000	100.652523
1950.000000	100.652550
1949.000000	100.652478
1948.000000	100.652153
1947.000000	100.651759
1946.000000	100.651463
1945.000000	100.651111
1944.000000	100.650462
1943.000000	100.649643
1942.000000	100.649069
1941.000000	100.648868
1940.000000	100.648660
1939.000000	100.647921
1938.000000	100.646433
1937.000000	100.644455
1936.000000	100.642576
1935.000000	100.641315
1934.000000	100.640727
1933.000000	100.640380
1932.000000	100.639806
1931.000000	100.639018
1930.000000	100.638418
1929.000000	100.638142
1928.000000	100.637681
1927.000000	100.636428
1926.000000	100.634643
1925.000000	100.633440
1924.000000	100.633664
1923.000000	100.634808
1922.000000	100.635477
1921.000000	100.635081
1920.000000	100.634387
1919.000000	100.634369
1918.000000	100.634901
1917.000000	100.634835
1916.000000	100.633434
1915.000000	100.630950
1914.000000	100.627829
1913.000000	100.624160
1912.000000	100.619927
1911.000000	100.615503
1910.000000	100.611659
1909.000000	100.608972
1908.000000	100.607320
1907.000000	100.606133
1906.000000	100.605045
1905.000000	100.603963
1904.000000	100.602713
1903.000000	100.600990
1902.000000	100.598785
1901.000000	100.596657
1900.000000	100.595360
1899.000000	100.595152
1898.000000	100.595528
1897.000000	100.595542
1896.000000	100.594442
1895.000000	100.592130
1894.000000	100.589213
1893.000000	100.586574
1892.000000	100.584754
1891.000000	100.583654
1890.000000	100.582645
1889.000000	100.580899
1888.000000	100.577990
1887.000000	100.574326
1886.000000	100.570845
1885.000000	100.568416
1884.000000	100.567392
1883.000000	100.567589
1882.000000	100.568688
1881.000000	100.570531
1880.000000	100.572988
1879.000000	100.575663
1878.000000	100.577821
1877.000000	100.578689
1876.000000	100.577893
1875.000000	100.575692
1874.000000	100.572852
1873.000000	100.570295
1872.000000	100.568654
1871.000000	100.567936
1870.000000	100.567480
1869.000000	100.566331
1868.000000	100.564204
1867.000000	100.562388
1866.000000	100.562849
1865.000000	100.566105
1864.000000	100.570420
1863.000000	100.573150
1862.000000	100.573122
1861.000000	100.571831
1860.000000	100.572043
1859.000000	100.575169
1858.000000	100.580249
1857.000000	100.585300
1856.000000	100.589326
1855.000000	100.592751
1854.000000	100.596057
1853.000000	100.598816
1852.000000	100.600618
1851.000000	100.602128
1850.000000	100.604592
1849.000000	100.608302
1848.000000	100.612133
1847.000000	100.614775
1846.000000	100.615972
1845.000000	100.616606
1844.000000	100.617824
1843.000000	100.620181
1842.000000	100.623553
1841.000000	100.627228
1840.000000	100.630330
1839.000000	100.632486
1838.000000	100.633759
1837.000000	100.634108
1836.000000	100.633505
1835.000000	100.632536
1834.000000	100.632313
1833.000000	100.633721
1832.000000	100.637028
1831.000000	100.641625
1830.000000	100.645594
1829.000000	100.646573
1828.000000	100.644299
1827.000000	100.640622
1826.000000	100.637180
1825.000000	100.634263
1824.000000	100.631279
1823.000000	100.628066
1822.000000	100.625292
1821.000000	100.623620
1820.000000	100.623205
1819.000000	100.623792
1818.000000	100.624923
1817.000000	100.625875
1816.000000	100.625803
1815.000000	100.624345
1814.000000	100.621833
1813.000000	100.618854
1812.000000	100.615870
1811.000000	100.613446
1810.000000	100.612520
1809.000000	100.613765
1808.000000	100.616458
1807.000000	100.618695
1806.000000	100.619049
1805.000000	100.617489
1804.000000	100.614728
1803.000000	100.611310
1802.000000	100.607534
1801.000000	100.604014
1800.000000	100.601595
1799.000000	100.600989
1798.000000	100.602563
1797.000000	100.605789
1796.000000	100.609002
1795.000000	100.610711
1794.000000	100.611249
1793.000000	100.612485
1792.000000	100.615069
1791.000000	100.617018
1790.000000	100.616787
1789.000000	100.615276
1788.000000	100.614088
1787.000000	100.614012
1786.000000	100.615091
1785.000000	100.617206
1784.000000	100.620258
1783.000000	100.624167
1782.000000	100.628735
1781.000000	100.633517
1780.000000	100.637653
1779.000000	100.640537
1778.000000	100.642461
1777.000000	100.643919
1776.000000	100.644822
1775.000000	100.645090
1774.000000	100.645805
1773.000000	100.648629
1772.000000	100.652909
1771.000000	100.655487
1770.000000	100.655357
1769.000000	100.654843
1768.000000	100.656501
1767.000000	100.660307
1766.000000	100.664121
1765.000000	100.666873
1764.000000	100.669729
1763.000000	100.674503
1762.000000	100.680934
1761.000000	100.686111
1760.000000	100.687826
1759.000000	100.686638
1758.000000	100.684547
1757.000000	100.683582
1756.000000	100.684614
1755.000000	100.686927
1754.000000	100.689470
1753.000000	100.692055
1752.000000	100.695482
1751.000000	100.700346
1750.000000	100.705809
1749.000000	100.710427
1748.000000	100.713641
1747.000000	100.715495
1746.000000	100.716009
1745.000000	100.715356
1744.000000	100.714063
1743.000000	100.712699
1742.000000	100.711372
1741.000000	100.710224
1740.000000	100.710096
1739.000000	100.711508
1738.000000	100.713115
1737.000000	100.712689
1736.000000	100.709163
1735.000000	100.704443
1734.000000	100.702866
1733.000000	100.705398
1732.000000	100.708821
1731.000000	100.710673
1730.000000	100.710205
1729.000000	100.707894
1728.000000	100.704622
1727.000000	100.701047
1726.000000	100.697709
1725.000000	100.695322
1724.000000	100.694343
1723.000000	100.694369
1722.000000	100.694354
1721.000000	100.693573
1720.000000	100.692202
1719.000000	100.691094
1718.000000	100.690570
1717.000000	100.689337
1716.000000	100.686495
1715.000000	100.683255
1714.000000	100.681306
1713.000000	100.681054
1712.000000	100.681395
1711.000000	100.680770
1710.000000	100.678416
1709.000000	100.674820
1708.000000	100.671094
1707.000000	100.667895
1706.000000	100.665469
1705.000000	100.663920
1704.000000	100.662869
1703.000000	100.661398
1702.000000	100.658685
1701.000000	100.654980
1700.000000	100.651494
1699.000000	100.648669
1698.000000	100.646255
1697.000000	100.644262
1696.000000	100.642978
1695.000000	100.642115
1694.000000	100.640971
1693.000000	100.639375
1692.000000	100.637419
1691.000000	100.635677
1690.000000	100.634834
1689.000000	100.634746
1688.000000	100.634437
1687.000000	100.633064
1686.000000	100.630828
1685.000000	100.629207
1684.000000	100.629312
1683.000000	100.629705
1682.000000	100.628992
1681.000000	100.627577
1680.000000	100.626304
1679.000000	100.625653
1678.000000	100.625327
1677.000000	100.624766
1676.000000	100.623895
1675.000000	100.623103
1674.000000	100.622478
1673.000000	100.621728
1672.000000	100.620675
1671.000000	100.619493
1670.000000	100.618533
1669.000000	100.617841
1668.000000	100.617305
1667.000000	100.617060
1666.000000	100.617206
1665.000000	100.617570
1664.000000	100.617765
1663.000000	100.617376
1662.000000	100.616262
1661.000000	100.614746
1660.000000	100.613339
1659.000000	100.612403
1658.000000	100.612095
1657.000000	100.612301
1656.000000	100.612660
1655.000000	100.612857
1654.000000	100.612979
1653.000000	100.612847
1652.000000	100.611873
1651.000000	100.610898
1650.000000	100.610555
1649.000000	100.610418
1648.000000	100.610286
1647.000000	100.609981
1646.000000	100.608983
1645.000000	100.607442
1644.000000	100.606280
1643.000000	100.605692
1642.000000	100.605135
1641.000000	100.604421
1640.000000	100.603947
1639.000000	100.603832
1638.000000	100.603375
1637.000000	100.601794
1636.000000	100.599595
1635.000000	100.598095
1634.000000	100.597712
1633.000000	100.597844
1632.000000	100.597747
1631.000000	100.597393
1630.000000	100.597300
1629.000000	100.597576
1628.000000	100.597720
1627.000000	100.597322
1626.000000	100.596410
1625.000000	100.595371
1624.000000	100.595093
1623.000000	100.596441
1622.000000	100.598669
1621.000000	100.599912
1620.000000	100.599274
1619.000000	100.597509
1618.000000	100.596436
1617.000000	100.596705
1616.000000	100.596365
1615.000000	100.594828
1614.000000	100.594210
1613.000000	100.595627
1612.000000	100.598486
1611.000000	100.601456
1610.000000	100.603311
1609.000000	100.603867
1608.000000	100.604352
1607.000000	100.606492
1606.000000	100.610499
1605.000000	100.614576
1604.000000	100.616797
1603.000000	100.617275
1602.000000	100.617881
1601.000000	100.619860
1600.000000	100.622763
1599.000000	100.625740
1598.000000	100.628574
1597.000000	100.631281
1596.000000	100.633743
1595.000000	100.636234
1594.000000	100.639479
1593.000000	100.643529
1592.000000	100.647472
1591.000000	100.650862
1590.000000	100.654432
1589.000000	100.658434
1588.000000	100.661236
1587.000000	100.661169
1586.000000	100.659440
1585.000000	100.659597
1584.000000	100.663722
1583.000000	100.670150
1582.000000	100.675902
1581.000000	100.680224
1580.000000	100.684426
1579.000000	100.688959
1578.000000	100.692347
1577.000000	100.692795
1576.000000	100.690420
1575.000000	100.687917
1574.000000	100.687135
1573.000000	100.686465
1572.000000	100.683898
1571.000000	100.680715
1570.000000	100.680891
1569.000000	100.685481
1568.000000	100.690871
1567.000000	100.694158
1566.000000	100.695410
1565.000000	100.696444
1564.000000	100.699394
1563.000000	100.704772
1562.000000	100.711496
1561.000000	100.718165
1560.000000	100.723148
1559.000000	100.723726
1558.000000	100.718027
1557.000000	100.711147
1556.000000	100.706677
1555.000000	100.701971
1554.000000	100.696388
1553.000000	100.692347
1552.000000	100.691165
1551.000000	100.690942
1550.000000	100.689257
1549.000000	100.686070
1548.000000	100.683444
1547.000000	100.682505
1546.000000	100.681959
1545.000000	100.679545
1544.000000	100.674003
1543.000000	100.665601
1542.000000	100.655473
1541.000000	100.645315
1540.000000	100.636636
1539.000000	100.628982
1538.000000	100.622387
1537.000000	100.616991
1536.000000	100.611188
1535.000000	100.604443
1534.000000	100.598488
1533.000000	100.594392
1532.000000	100.590549
1531.000000	100.585707
1530.000000	100.580222
1529.000000	100.574352
1528.000000	100.567539
1527.000000	100.559516
1526.000000	100.551567
1525.000000	100.545294
1524.000000	100.540292
1523.000000	100.534986
1522.000000	100.529889
1521.000000	100.527475
1520.000000	100.527701
1519.000000	100.527599
1518.000000	100.524654
1517.000000	100.518524
1516.000000	100.510829
1515.000000	100.503199
1514.000000	100.495995
1513.000000	100.489296
1512.000000	100.484025
1511.000000	100.481110
1510.000000	100.479751
1509.000000	100.477479
1508.000000	100.471513
1507.000000	100.461304
1506.000000	100.450625
1505.000000	100.444335
1504.000000	100.442429
1503.000000	100.441043
1502.000000	100.437214
1501.000000	100.430788
1500.000000	100.423543
1499.000000	100.417532
1498.000000	100.414030
1497.000000	100.413149
1496.000000	100.412830
1495.000000	100.410121
1494.000000	100.404652
1493.000000	100.398653
1492.000000	100.394574
1491.000000	100.393326
1490.000000	100.393203
1489.000000	100.391166
1488.000000	100.385821
1487.000000	100.378197
1486.000000	100.370873
1485.000000	100.366419
1484.000000	100.365617
1483.000000	100.367228
1482.000000	100.369657
1481.000000	100.372218
1480.000000	100.374581
1479.000000	100.375720
1478.000000	100.374477
1477.000000	100.371048
1476.000000	100.367360
1475.000000	100.365888
1474.000000	100.369118
1473.000000	100.378627
1472.000000	100.391151
1471.000000	100.400051
1470.000000	100.403406
1469.000000	100.404030
1468.000000	100.404891
1467.000000	100.406760
1466.000000	100.408287
1465.000000	100.408262
1464.000000	100.407226
1463.000000	100.406308
1462.000000	100.405539
1461.000000	100.404178
1460.000000	100.401937
1459.000000	100.399738
1458.000000	100.399760
1457.000000	100.402961
1456.000000	100.406453
1455.000000	100.408048
1454.000000	100.408630
1453.000000	100.409536
1452.000000	100.411581
1451.000000	100.414322
1450.000000	100.416761
1449.000000	100.419047
1448.000000	100.422061
1447.000000	100.425329
1446.000000	100.427373
1445.000000	100.428219
1444.000000	100.429225
1443.000000	100.431172
1442.000000	100.433596
1441.000000	100.435860
1440.000000	100.438158
1439.000000	100.441158
1438.000000	100.445251
1437.000000	100.450077
1436.000000	100.454282
1435.000000	100.456660
1434.000000	100.457246
1433.000000	100.456780
1432.000000	100.456437
1431.000000	100.457472
1430.000000	100.459907
1429.000000	100.462354
1428.000000	100.463834
1427.000000	100.464808
1426.000000	100.466252
1425.000000	100.468788
1424.000000	100.472338
1423.000000	100.475993
1422.000000	100.478728
1421.000000	100.480646
1420.000000	100.483444
1419.000000	100.488773
1418.000000	100.495346
1417.000000	100.500517
1416.000000	100.503896
1415.000000	100.506695
1414.000000	100.509842
1413.000000	100.513099
1412.000000	100.515735
1411.000000	100.517827
1410.000000	100.520304
1409.000000	100.523773
1408.000000	100.528001
1407.000000	100.532625
1406.000000	100.537814
1405.000000	100.543696
1404.000000	100.549330
1403.000000	100.553485
1402.000000	100.556486
1401.000000	100.560207
1400.000000	100.566076
1399.000000	100.573078
1398.000000	100.578587
1397.000000	100.581699
1396.000000	100.583888
1395.000000	100.586803
1394.000000	100.590437
1393.000000	100.593782
1392.000000	100.596589
1391.000000	100.599338
1390.000000	100.602542
1389.000000	100.606300
1388.000000	100.609681
1387.000000	100.611036
1386.000000	100.610221
1385.000000	100.609765
1384.000000	100.612309
1383.000000	100.617829
1382.000000	100.623798
1381.000000	100.627915
1380.000000	100.630368
1379.000000	100.633057
1378.000000	100.637474
1377.000000	100.643888
1376.000000	100.651871
1375.000000	100.660523
1374.000000	100.668318
1373.000000	100.674032
1372.000000	100.678040
1371.000000	100.681655
1370.000000	100.685608
1369.000000	100.689612
1368.000000	100.693046
1367.000000	100.695638
1366.000000	100.697415
1365.000000	100.698481
1364.000000	100.699174
1363.000000	100.700112
1362.000000	100.701423
1361.000000	100.702232
1360.000000	100.701759
1359.000000	100.700607
1358.000000	100.700480
1357.000000	100.702579
1356.000000	100.706482
1355.000000	100.710796
1354.000000	100.714430
1353.000000	100.716667
1352.000000	100.716581
1351.000000	100.713773
1350.000000	100.709793
1349.000000	100.707255
1348.000000	100.707023
1347.000000	100.707374
1346.000000	100.706352
1345.000000	100.704071
1344.000000	100.702332
1343.000000	100.702740
1342.000000	100.705738
1341.000000	100.710556
1340.000000	100.715145
1339.000000	100.717133
1338.000000	100.716023
1337.000000	100.713833
1336.000000	100.712772
1335.000000	100.713014
1334.000000	100.713325
1333.000000	100.713020
1332.000000	100.712331
1331.000000	100.711309
1330.000000	100.709651
1329.000000	100.707741
1328.000000	100.706869
1327.000000	100.707979
1326.000000	100.710777
1325.000000	100.714141
1324.000000	100.716908
1323.000000	100.718035
1322.000000	100.716769
1321.000000	100.713340
1320.000000	100.709235
1319.000000	100.706242
1318.000000	100.705158
1317.000000	100.705671
1316.000000	100.707251
1315.000000	100.709653
1314.000000	100.712600
1313.000000	100.715322
1312.000000	100.716583
1311.000000	100.715484
1310.000000	100.712612
1309.000000	100.710208
1308.000000	100.710455
1307.000000	100.713246
1306.000000	100.716191
1305.000000	100.717115
1304.000000	100.716147
1303.000000	100.715098
1302.000000	100.715277
1301.000000	100.716124
1300.000000	100.715881
1299.000000	100.713506
1298.000000	100.710057
1297.000000	100.707987
1296.000000	100.708453
1295.000000	100.709630
1294.000000	100.708531
1293.000000	100.704355
1292.000000	100.699118
1291.000000	100.695075
1290.000000	100.692843
1289.000000	100.692446
1288.000000	100.694375
1287.000000	100.698074
1286.000000	100.700473
1285.000000	100.697991
1284.000000	100.689958
1283.000000	100.679101
1282.000000	100.668776
1281.000000	100.660486
1280.000000	100.654072
1279.000000	100.649280
1278.000000	100.646553
1277.000000	100.646529
1276.000000	100.648823
1275.000000	100.651471
1274.000000	100.652360
1273.000000	100.651489
1272.000000	100.650857
1271.000000	100.651541
1270.000000	100.652002
1269.000000	100.650324
1268.000000	100.647047
1267.000000	100.644400
1266.000000	100.643515
1265.000000	100.643900
1264.000000	100.645148
1263.000000	100.647490
1262.000000	100.650719
1261.000000	100.653757
1260.000000	100.655171
1259.000000	100.653450
1258.000000	100.647580
1257.000000	100.638564
1256.000000	100.629613
1255.000000	100.623211
1254.000000	100.618319
1253.000000	100.611947
1252.000000	100.602914
1251.000000	100.592245
1250.000000	100.580360
1249.000000	100.566418
1248.000000	100.551040
1247.000000	100.537514
1246.000000	100.528795
1245.000000	100.524248
1244.000000	100.520153
1243.000000	100.512649
1242.000000	100.500049
1241.000000	100.483543
1240.000000	100.466202
1239.000000	100.450490
1238.000000	100.436337
1237.000000	100.422158
1236.000000	100.407426
1235.000000	100.392958
1234.000000	100.378943
1233.000000	100.364313
1232.000000	100.348132
1231.000000	100.329894
1230.000000	100.308370
1229.000000	100.282227
1228.000000	100.252567
1227.000000	100.222889
1226.000000	100.195107
1225.000000	100.166766
1224.000000	100.133509
1223.000000	100.093312
1222.000000	100.047170
1221.000000	99.996540
1220.000000	99.941590
1219.000000	99.881983
1218.000000	99.818451
1217.000000	99.753121
1216.000000	99.688077
1215.000000	99.623350
1214.000000	99.556850
1213.000000	99.487029
1212.000000	99.414971
1211.000000	99.342949
1210.000000	99.272176
1209.000000	99.203612
1208.000000	99.139116
1207.000000	99.078660
1206.000000	99.017694
1205.000000	98.951286
1204.000000	98.880385
1203.000000	98.810223
1202.000000	98.743141
1201.000000	98.677111
1200.000000	98.610930
1199.000000	98.545792
1198.000000	98.481100
1197.000000	98.413861
1196.000000	98.343915
1195.000000	98.275259
1194.000000	98.210255
1193.000000	98.146388
1192.000000	98.080554
1191.000000	98.012609
1190.000000	97.942749
1189.000000	97.869406
1188.000000	97.792423
1187.000000	97.715061
1186.000000	97.640066
1185.000000	97.566123
1184.000000	97.490129
1183.000000	97.410326
1182.000000	97.325738
1181.000000	97.235654
1180.000000	97.141518
1179.000000	97.046327
1178.000000	96.950323
1177.000000	96.850237
1176.000000	96.744360
1175.000000	96.635139
1174.000000	96.525153
1173.000000	96.414286
1172.000000	96.303124
1171.000000	96.195507
1170.000000	96.095003
1169.000000	96.001740
1168.000000	95.914713
1167.000000	95.834300
1166.000000	95.761529
1165.000000	95.699131
1164.000000	95.655006
1163.000000	95.639695
1162.000000	95.656768
1161.000000	95.697406
1160.000000	95.745152
1159.000000	95.783486
1158.000000	95.799598
1157.000000	95.786458
1156.000000	95.744543
1155.000000	95.679939
1154.000000	95.599340
1153.000000	95.507917
1152.000000	95.411166
1151.000000	95.314799
1150.000000	95.221567
1149.000000	95.131147
1148.000000	95.043367
1147.000000	94.957965
1146.000000	94.871647
1145.000000	94.780715
1144.000000	94.687491
1143.000000	94.599332
1142.000000	94.519979
1141.000000	94.446188
1140.000000	94.373363
1139.000000	94.299368
1138.000000	94.222276
1137.000000	94.140232
1136.000000	94.055229
1135.000000	93.972013
1134.000000	93.891805
1133.000000	93.811781
1132.000000	93.731302
1131.000000	93.653132
1130.000000	93.577897
1129.000000	93.503324
1128.000000	93.429683
1127.000000	93.359600
1126.000000	93.291686
1125.000000	93.221218
1124.000000	93.148169
1123.000000	93.077418
1122.000000	93.009704
1121.000000	92.939951
1120.000000	92.866329
1119.000000	92.793116
1118.000000	92.722330
1117.000000	92.650666
1116.000000	92.577747
1115.000000	92.509734
1114.000000	92.451110
1113.000000	92.399307
1112.000000	92.350109
1111.000000	92.301663
1110.000000	92.250758
1109.000000	92.192029
1108.000000	92.124178
1107.000000	92.052401
1106.000000	91.983287
1105.000000	91.921294
1104.000000	91.868846
1103.000000	91.823222
1102.000000	91.774555
1101.000000	91.714669
1100.000000	91.647566
1099.000000	91.583992
1098.000000	91.528043
1097.000000	91.477021
1096.000000	91.431416
1095.000000	91.393987
1094.000000	91.360594
1093.000000	91.324284
1092.000000	91.288966
1091.000000	91.267375
1090.000000	91.264236
1089.000000	91.272089
1088.000000	91.284532
1087.000000	91.302573
1086.000000	91.326683
1085.000000	91.353424
1084.000000	91.381868
1083.000000	91.413860
1082.000000	91.447024
1081.000000	91.476662
1080.000000	91.504528
1079.000000	91.536055
1078.000000	91.569242
1077.000000	91.596235
1076.000000	91.615023
1075.000000	91.628719
1074.000000	91.634213
1073.000000	91.623191
1072.000000	91.593893
1071.000000	91.549675
1070.000000	91.485709
1069.000000	91.389959
1068.000000	91.259745
1067.000000	91.106501
1066.000000	90.942109
1065.000000	90.771097
1064.000000	90.598178
1063.000000	90.430367
1062.000000	90.267136
1061.000000	90.100458
1060.000000	89.929788
1059.000000	89.766720
1058.000000	89.620690
1057.000000	89.490324
1056.000000	89.372218
1055.000000	89.266880
1054.000000	89.171743
1053.000000	89.079432
1052.000000	88.988587
1051.000000	88.907067
1050.000000	88.839876
1049.000000	88.783636
1048.000000	88.735284
1047.000000	88.694598
1046.000000	88.656686
1045.000000	88.613942
1044.000000	88.566819
1043.000000	88.522715
1042.000000	88.484348
1041.000000	88.449004
1040.000000	88.417934
1039.000000	88.394907
1038.000000	88.376193
1037.000000	88.354218
1036.000000	88.330827
1035.000000	88.314638
1034.000000	88.306121
1033.000000	88.298361
1032.000000	88.291841
1031.000000	88.294532
1030.000000	88.307358
1029.000000	88.323714
1028.000000	88.343542
1027.000000	88.372859
1026.000000	88.408043
1025.000000	88.435749
1024.000000	88.451491
1023.000000	88.464659
1022.000000	88.482586
1021.000000	88.502736
1020.000000	88.522668
1019.000000	88.543978
1018.000000	88.563178
1017.000000	88.571616
1016.000000	88.568492
1015.000000	88.563219
1014.000000	88.562484
1013.000000	88.565638
1012.000000	88.573770
1011.000000	88.590967
1010.000000	88.614741
1009.000000	88.637399
1008.000000	88.659640
1007.000000	88.691802
1006.000000	88.739290
1005.000000	88.796810
1004.000000	88.857801
1003.000000	88.919414
1002.000000	88.978328
1001.000000	89.033110
1000.000000	89.091102
999.000000	89.161430
998.000000	89.240882
997.000000	89.317774
996.000000	89.389466
995.000000	89.463836
994.000000	89.543917
993.000000	89.624863
992.000000	89.706865
991.000000	89.796944
990.000000	89.895418
989.000000	89.993667
988.000000	90.088263
987.000000	90.185217
986.000000	90.287493
985.000000	90.390638
984.000000	90.493947
983.000000	90.603862
982.000000	90.722146
981.000000	90.841461
980.000000	90.956842
979.000000	91.071862
978.000000	91.189830
977.000000	91.308344
976.000000	91.425975
975.000000	91.545785
974.000000	91.669460
973.000000	91.795721
972.000000	91.925506
971.000000	92.059663
970.000000	92.191016
969.000000	92.309574
968.000000	92.417717
967.000000	92.529622
966.000000	92.652593
965.000000	92.778984
964.000000	92.900219
963.000000	93.018315
962.000000	93.138452
961.000000	93.258999
960.000000	93.374959
959.000000	93.484763
958.000000	93.588968
957.000000	93.687915
956.000000	93.784383
955.000000	93.883018
954.000000	93.983711
953.000000	94.080785
952.000000	94.170975
951.000000	94.256627
950.000000	94.339414
949.000000	94.417219
948.000000	94.489513
947.000000	94.559520
946.000000	94.628373
945.000000	94.692979
944.000000	94.752389
943.000000	94.810891
942.000000	94.872282
941.000000	94.935936
940.000000	95.000469
939.000000	95.066117
938.000000	95.131824
937.000000	95.195020
936.000000	95.255569
935.000000	95.315115
934.000000	95.372167
933.000000	95.423645
932.000000	95.471841
931.000000	95.523462
930.000000	95.580549
929.000000	95.638474
928.000000	95.693837
927.000000	95.747656
926.000000	95.799672
925.000000	95.846596
924.000000	95.887783
923.000000	95.925999
922.000000	95.961006
921.000000	95.989486
920.000000	96.013180
919.000000	96.039380
918.000000	96.070422
917.000000	96.100312
916.000000	96.125628
915.000000	96.152650
914.000000	96.189020
913.000000	96.234908
912.000000	96.287560
911.000000	96.348695
910.000000	96.421342
909.000000	96.503467
908.000000	96.590251
907.000000	96.679741
906.000000	96.771696
905.000000	96.863651
904.000000	96.952920
903.000000	97.041179
902.000000	97.133174
901.000000	97.230768
900.000000	97.330020
899.000000	97.423991
898.000000	97.508354
897.000000	97.585302
896.000000	97.661690
895.000000	97.741788
894.000000	97.822623
893.000000	97.898448
892.000000	97.967743
891.000000	98.032066
890.000000	98.089800
889.000000	98.136463
888.000000	98.171341
887.000000	98.198728
886.000000	98.221712
885.000000	98.239899
884.000000	98.255102
883.000000	98.273868
882.000000	98.301260
881.000000	98.336825
880.000000	98.380200
879.000000	98.435890
878.000000	98.507381
877.000000	98.589455
876.000000	98.671619
875.000000	98.748355
874.000000	98.822244
873.000000	98.897408
872.000000	98.973325
871.000000	99.045942
870.000000	99.112995
869.000000	99.176697
868.000000	99.240941
867.000000	99.306286
866.000000	99.368723
865.000000	99.424077
864.000000	99.472954
863.000000	99.520767
862.000000	99.573903
861.000000	99.636085
860.000000	99.706025
859.000000	99.776575
858.000000	99.838316
857.000000	99.887134
856.000000	99.927862
855.000000	99.969093
854.000000	100.015762
853.000000	100.068012
852.000000	100.124121
851.000000	100.180717
850.000000	100.232067
849.000000	100.273601
848.000000	100.306122
847.000000	100.334175
846.000000	100.361265
845.000000	100.388748
844.000000	100.417033
843.000000	100.444080
842.000000	100.464630
841.000000	100.475594
840.000000	100.481095
839.000000	100.487567
838.000000	100.494628
837.000000	100.496072
836.000000	100.490252
835.000000	100.484163
834.000000	100.485507
833.000000	100.494925
832.000000	100.508057
831.000000	100.521209
830.000000	100.532404
829.000000	100.540219
828.000000	100.545033
827.000000	100.549781
826.000000	100.556710
825.000000	100.564094
824.000000	100.567309
823.000000	100.561773
822.000000	100.544383
821.000000	100.514297
820.000000	100.472994
819.000000	100.421895
818.000000	100.359892
817.000000	100.284928
816.000000	100.197063
815.000000	100.096382
814.000000	99.976978
813.000000	99.826318
812.000000	99.632533
811.000000	99.390202
810.000000	99.097745
809.000000	98.752653
808.000000	98.353537
807.000000	97.906313
806.000000	97.425760
805.000000	96.931825
804.000000	96.445991
803.000000	95.988123
802.000000	95.573493
801.000000	95.215004
800.000000	94.928891
799.000000	94.732033
798.000000	94.630453
797.000000	94.614572
796.000000	94.665899
795.000000	94.762750
794.000000	94.881415
793.000000	95.000950
792.000000	95.108907
791.000000	95.197995
790.000000	95.258824
789.000000	95.281372
788.000000	95.261204
787.000000	95.197959
786.000000	95.090185
785.000000	94.939267
784.000000	94.757603
783.000000	94.565552
782.000000	94.380646
781.000000	94.216794
780.000000	94.091735
779.000000	94.023759
778.000000	94.018937
777.000000	94.070358
776.000000	94.170398
775.000000	94.314039
774.000000	94.490097
773.000000	94.680706
772.000000	94.872498
771.000000	95.060743
770.000000	95.242473
769.000000	95.414256
768.000000	95.576812
767.000000	95.732432
766.000000	95.876495
765.000000	96.000478
764.000000	96.105375
763.000000	96.203921
762.000000	96.307194
761.000000	96.416267
760.000000	96.528638
759.000000	96.644242
758.000000	96.761490
757.000000	96.874967
756.000000	96.981685
755.000000	97.084169
754.000000	97.183887
753.000000	97.276780
752.000000	97.359069
751.000000	97.433232
750.000000	97.504836
749.000000	97.576638
748.000000	97.648295
747.000000	97.718507
746.000000	97.784762
745.000000	97.843853
744.000000	97.895764
743.000000	97.946031
742.000000	98.002515
741.000000	98.069779
740.000000	98.145929
739.000000	98.223473
738.000000	98.294234
737.000000	98.355221
736.000000	98.408590
735.000000	98.455360
734.000000	98.493331
733.000000	98.523248
732.000000	98.551601
731.000000	98.583000
730.000000	98.614167
729.000000	98.640356
728.000000	98.663282
727.000000	98.686901
726.000000	98.710027
725.000000	98.730724
724.000000	98.754110
723.000000	98.786962
722.000000	98.827055
721.000000	98.867252
720.000000	98.908581
719.000000	98.958291
718.000000	99.014120
717.000000	99.062150
716.000000	99.094045
715.000000	99.117673
714.000000	99.146261
713.000000	99.183110
712.000000	99.221159
711.000000	99.252228
710.000000	99.272470
709.000000	99.282787
708.000000	99.287724
707.000000	99.291087
706.000000	99.289799
705.000000	99.274003
704.000000	99.233389
703.000000	99.159647
702.000000	99.043465
701.000000	98.875929
700.000000	98.655955
699.000000	98.393762
698.000000	98.108615
697.000000	97.830191
696.000000	97.601057
695.000000	97.464541
694.000000	97.441221
693.000000	97.518018
692.000000	97.659648
691.000000	97.828641
690.000000	97.998228
689.000000	98.155754
688.000000	98.300398
687.000000	98.435446
686.000000	98.559621
685.000000	98.667791
684.000000	98.760052
683.000000	98.844891
682.000000	98.930459
681.000000	99.015745
680.000000	99.093332
679.000000	99.159549
678.000000	99.219091
677.000000	99.279682
676.000000	99.343489
675.000000	99.404329
674.000000	99.452381
673.000000	99.482077
672.000000	99.496616
671.000000	99.504605
670.000000	99.515004
669.000000	99.539518
668.000000	99.591729
667.000000	99.662591
666.000000	99.723479
665.000000	99.766633
664.000000	99.798582
663.000000	99.819493
662.000000	99.821665
661.000000	99.803446
660.000000	99.779854
659.000000	99.771673
658.000000	99.784273
657.000000	99.803560
656.000000	99.814000
655.000000	99.811823
654.000000	99.800141
653.000000	99.782787
652.000000	99.767971
651.000000	99.768065
650.000000	99.788373
649.000000	99.823009
648.000000	99.865561
647.000000	99.914308
646.000000	99.964332
645.000000	100.005511
644.000000	100.033943
643.000000	100.058914
642.000000	100.092955
641.000000	100.138528
640.000000	100.190244
639.000000	100.244933
638.000000	100.304809
637.000000	100.371879
636.000000	100.439310
635.000000	100.489885
634.000000	100.509976
633.000000	100.507638
632.000000	100.509334
631.000000	100.535745
630.000000	100.583827
629.000000	100.633746
628.000000	100.667208
627.000000	100.676724
626.000000	100.670479
625.000000	100.673898
624.000000	100.709551
623.000000	100.764002
622.000000	100.789887
621.000000	100.760323
620.000000	100.707984
619.000000	100.690463
618.000000	100.719564
617.000000	100.749117
616.000000	100.735727
615.000000	100.683401
614.000000	100.625832
613.000000	100.585837
612.000000	100.563455
611.000000	100.549276
610.000000	100.534636
609.000000	100.513440
608.000000	100.480927
607.000000	100.433575
606.000000	100.375348
605.000000	100.319020
604.000000	100.266863
603.000000	100.192913
602.000000	100.069804
601.000000	99.925266
600.000000	99.842701
599.000000	99.877941
598.000000	99.987358
597.000000	100.069841
596.000000	100.082952
595.000000	100.074010
594.000000	100.099000
593.000000	100.155181
592.000000	100.203922
591.000000	100.220702
590.000000	100.206317
589.000000	100.175626
588.000000	100.150817
587.000000	100.148085
586.000000	100.161895
585.000000	100.183225
584.000000	100.232337
583.000000	100.335837
582.000000	100.469145
581.000000	100.570186
580.000000	100.617904
579.000000	100.646857
578.000000	100.678841
577.000000	100.693685
576.000000	100.685980
575.000000	100.692669
574.000000	100.732909
573.000000	100.771046
572.000000	100.774151
571.000000	100.759043
570.000000	100.757152
569.000000	100.765766
568.000000	100.764719
567.000000	100.750775
566.000000	100.730950
565.000000	100.710809
564.000000	100.706594
563.000000	100.736775
562.000000	100.783947
561.000000	100.801965
560.000000	100.772797
559.000000	100.719133
558.000000	100.656261
557.000000	100.572476
556.000000	100.480251
555.000000	100.435069
554.000000	100.466618
553.000000	100.537090
552.000000	100.595904
551.000000	100.638311
550.000000	100.684043
