PE IR       SUBTECH     SPECTRUM    ASCII       PEDS        4.00        
   -1
BH1 8-1 4 75_1.asc
24/05/15
16:11:23.00
24/05/15
16:13:32.00
Administrator
?品 111 用? Administrator 日期 Wednesday, May 15 2024
550.000000
#HDR
-1
-1
#GR
cm-1
%T
1.0
0.0
4000.000000
-1.000000
3451
8
100.676110
77.155017
#DATA
4000.000000	100.541707
3999.000000	100.541252
3998.000000	100.540792
3997.000000	100.540323
3996.000000	100.539845
3995.000000	100.539359
3994.000000	100.538871
3993.000000	100.538391
3992.000000	100.537933
3991.000000	100.537501
3990.000000	100.537084
3989.000000	100.536665
3988.000000	100.536242
3987.000000	100.535841
3986.000000	100.535502
3985.000000	100.535237
3984.000000	100.535038
3983.000000	100.534871
3982.000000	100.534691
3981.000000	100.534461
3980.000000	100.534166
3979.000000	100.533831
3978.000000	100.533498
3977.000000	100.533199
3976.000000	100.532938
3975.000000	100.532676
3974.000000	100.532354
3973.000000	100.531942
3972.000000	100.531477
3971.000000	100.531067
3970.000000	100.530813
3969.000000	100.530698
3968.000000	100.530532
3967.000000	100.530118
3966.000000	100.529429
3965.000000	100.528693
3964.000000	100.528214
3963.000000	100.528136
3962.000000	100.528350
3961.000000	100.528593
3960.000000	100.528665
3959.000000	100.528550
3958.000000	100.528353
3957.000000	100.528130
3956.000000	100.527776
3955.000000	100.527075
3954.000000	100.525879
3953.000000	100.524334
3952.000000	100.522981
3951.000000	100.522510
3950.000000	100.523315
3949.000000	100.525206
3948.000000	100.527519
3947.000000	100.529527
3946.000000	100.530764
3945.000000	100.531244
3944.000000	100.531521
3943.000000	100.532237
3942.000000	100.533285
3941.000000	100.533751
3940.000000	100.532983
3939.000000	100.531351
3938.000000	100.529807
3937.000000	100.528834
3936.000000	100.528160
3935.000000	100.527446
3934.000000	100.526701
3933.000000	100.525887
3932.000000	100.524470
3931.000000	100.522099
3930.000000	100.519588
3929.000000	100.518529
3928.000000	100.519887
3927.000000	100.523217
3926.000000	100.527168
3925.000000	100.530540
3924.000000	100.532941
3923.000000	100.534805
3922.000000	100.536813
3921.000000	100.539022
3920.000000	100.540605
3919.000000	100.540514
3918.000000	100.538459
3917.000000	100.535180
3916.000000	100.531900
3915.000000	100.529552
3914.000000	100.528493
3913.000000	100.528576
3912.000000	100.529393
3911.000000	100.530544
3910.000000	100.531819
3909.000000	100.533026
3908.000000	100.533853
3907.000000	100.534080
3906.000000	100.533940
3905.000000	100.534086
3904.000000	100.534810
3903.000000	100.535512
3902.000000	100.535345
3901.000000	100.534132
3900.000000	100.532468
3899.000000	100.531163
3898.000000	100.530745
3897.000000	100.531330
3896.000000	100.532540
3895.000000	100.533415
3894.000000	100.532952
3893.000000	100.531052
3892.000000	100.529055
3891.000000	100.528615
3890.000000	100.530060
3889.000000	100.532391
3888.000000	100.534236
3887.000000	100.534881
3886.000000	100.534529
3885.000000	100.533637
3884.000000	100.532255
3883.000000	100.530228
3882.000000	100.527712
3881.000000	100.525368
3880.000000	100.523817
3879.000000	100.523084
3878.000000	100.522779
3877.000000	100.522426
3876.000000	100.521729
3875.000000	100.520889
3874.000000	100.520308
3873.000000	100.519979
3872.000000	100.519748
3871.000000	100.519973
3870.000000	100.521156
3869.000000	100.522980
3868.000000	100.524622
3867.000000	100.525628
3866.000000	100.525917
3865.000000	100.525404
3864.000000	100.524099
3863.000000	100.522488
3862.000000	100.521417
3861.000000	100.521350
3860.000000	100.522143
3859.000000	100.523328
3858.000000	100.524441
3857.000000	100.525019
3856.000000	100.524477
3855.000000	100.522439
3854.000000	100.519933
3853.000000	100.518535
3852.000000	100.518459
3851.000000	100.519253
3850.000000	100.520559
3849.000000	100.521938
3848.000000	100.522935
3847.000000	100.523351
3846.000000	100.523436
3845.000000	100.523548
3844.000000	100.523707
3843.000000	100.523485
3842.000000	100.522402
3841.000000	100.520518
3840.000000	100.518664
3839.000000	100.517782
3838.000000	100.518082
3837.000000	100.519056
3836.000000	100.520145
3835.000000	100.521129
3834.000000	100.521968
3833.000000	100.522670
3832.000000	100.523334
3831.000000	100.524068
3830.000000	100.524810
3829.000000	100.525177
3828.000000	100.524724
3827.000000	100.523463
3826.000000	100.521992
3825.000000	100.520842
3824.000000	100.519971
3823.000000	100.518995
3822.000000	100.518134
3821.000000	100.518090
3820.000000	100.518766
3819.000000	100.519538
3818.000000	100.520198
3817.000000	100.520995
3816.000000	100.522039
3815.000000	100.522976
3814.000000	100.523516
3813.000000	100.523789
3812.000000	100.523991
3811.000000	100.524044
3810.000000	100.523733
3809.000000	100.523100
3808.000000	100.522598
3807.000000	100.522613
3806.000000	100.522984
3805.000000	100.523305
3804.000000	100.523468
3803.000000	100.523754
3802.000000	100.524428
3801.000000	100.525302
3800.000000	100.525930
3799.000000	100.526183
3798.000000	100.526208
3797.000000	100.526235
3796.000000	100.526437
3795.000000	100.526867
3794.000000	100.527491
3793.000000	100.528188
3792.000000	100.528774
3791.000000	100.529126
3790.000000	100.529274
3789.000000	100.529387
3788.000000	100.529632
3787.000000	100.530036
3786.000000	100.530501
3785.000000	100.530917
3784.000000	100.531249
3783.000000	100.531537
3782.000000	100.531842
3781.000000	100.532198
3780.000000	100.532611
3779.000000	100.533032
3778.000000	100.533359
3777.000000	100.533539
3776.000000	100.533657
3775.000000	100.533882
3774.000000	100.534313
3773.000000	100.534886
3772.000000	100.535434
3771.000000	100.535826
3770.000000	100.535964
3769.000000	100.535711
3768.000000	100.535039
3767.000000	100.534239
3766.000000	100.533773
3765.000000	100.533824
3764.000000	100.534093
3763.000000	100.534082
3762.000000	100.533546
3761.000000	100.532581
3760.000000	100.531458
3759.000000	100.530361
3758.000000	100.529380
3757.000000	100.528646
3756.000000	100.528346
3755.000000	100.528582
3754.000000	100.529257
3753.000000	100.529933
3752.000000	100.529898
3751.000000	100.528801
3750.000000	100.527100
3749.000000	100.525689
3748.000000	100.524867
3747.000000	100.524289
3746.000000	100.523743
3745.000000	100.523514
3744.000000	100.523448
3743.000000	100.522793
3742.000000	100.521358
3741.000000	100.519646
3740.000000	100.518227
3739.000000	100.517230
3738.000000	100.516305
3737.000000	100.515033
3736.000000	100.513354
3735.000000	100.511587
3734.000000	100.510207
3733.000000	100.509695
3732.000000	100.509998
3731.000000	100.510313
3730.000000	100.509804
3729.000000	100.508218
3728.000000	100.505738
3727.000000	100.502548
3726.000000	100.498783
3725.000000	100.495271
3724.000000	100.493617
3723.000000	100.494444
3722.000000	100.495847
3721.000000	100.494993
3720.000000	100.491488
3719.000000	100.487794
3718.000000	100.486208
3717.000000	100.485874
3716.000000	100.483702
3715.000000	100.478087
3714.000000	100.471032
3713.000000	100.466433
3712.000000	100.465664
3711.000000	100.464991
3710.000000	100.460453
3709.000000	100.453636
3708.000000	100.449021
3707.000000	100.448017
3706.000000	100.447603
3705.000000	100.444288
3704.000000	100.438328
3703.000000	100.433852
3702.000000	100.434072
3701.000000	100.436688
3700.000000	100.436423
3699.000000	100.431053
3698.000000	100.422787
3697.000000	100.415155
3696.000000	100.409999
3695.000000	100.407245
3694.000000	100.405953
3693.000000	100.404088
3692.000000	100.398881
3691.000000	100.389410
3690.000000	100.378678
3689.000000	100.370011
3688.000000	100.362895
3687.000000	100.355489
3686.000000	100.347935
3685.000000	100.342014
3684.000000	100.338561
3683.000000	100.335516
3682.000000	100.329373
3681.000000	100.319067
3680.000000	100.306578
3679.000000	100.293307
3678.000000	100.277935
3677.000000	100.260091
3676.000000	100.244337
3675.000000	100.232981
3674.000000	100.222174
3673.000000	100.209298
3672.000000	100.195839
3671.000000	100.184488
3670.000000	100.175999
3669.000000	100.166451
3668.000000	100.151619
3667.000000	100.131502
3666.000000	100.108311
3665.000000	100.084197
3664.000000	100.061125
3663.000000	100.040972
3662.000000	100.025209
3661.000000	100.014425
3660.000000	100.008020
3659.000000	100.004472
3658.000000	100.001323
3657.000000	99.995701
3656.000000	99.984868
3655.000000	99.967976
3654.000000	99.947127
3653.000000	99.925155
3652.000000	99.903852
3651.000000	99.884859
3650.000000	99.870209
3649.000000	99.858706
3648.000000	99.846127
3647.000000	99.830899
3646.000000	99.815008
3645.000000	99.800718
3644.000000	99.788806
3643.000000	99.778942
3642.000000	99.770934
3641.000000	99.765045
3640.000000	99.760879
3639.000000	99.756335
3638.000000	99.748207
3637.000000	99.735065
3636.000000	99.719680
3635.000000	99.707777
3634.000000	99.702799
3633.000000	99.702119
3632.000000	99.699010
3631.000000	99.688032
3630.000000	99.670748
3629.000000	99.654827
3628.000000	99.642627
3627.000000	99.630589
3626.000000	99.618275
3625.000000	99.608549
3624.000000	99.603702
3623.000000	99.603745
3622.000000	99.607019
3621.000000	99.612628
3620.000000	99.622140
3619.000000	99.636931
3618.000000	99.654132
3617.000000	99.668308
3616.000000	99.676396
3615.000000	99.680274
3614.000000	99.685408
3613.000000	99.696017
3612.000000	99.711387
3611.000000	99.727895
3610.000000	99.742976
3609.000000	99.756034
3608.000000	99.766427
3607.000000	99.772397
3606.000000	99.773518
3605.000000	99.772628
3604.000000	99.774174
3603.000000	99.781216
3602.000000	99.793459
3601.000000	99.807178
3600.000000	99.817339
3599.000000	99.821259
3598.000000	99.820549
3597.000000	99.819305
3596.000000	99.820753
3595.000000	99.825887
3594.000000	99.834205
3593.000000	99.845043
3592.000000	99.857331
3591.000000	99.868023
3590.000000	99.872558
3589.000000	99.869096
3588.000000	99.861972
3587.000000	99.856939
3586.000000	99.854015
3585.000000	99.849485
3584.000000	99.841578
3583.000000	99.831684
3582.000000	99.822233
3581.000000	99.814896
3580.000000	99.810435
3579.000000	99.809339
3578.000000	99.811665
3577.000000	99.816187
3576.000000	99.820624
3575.000000	99.823155
3574.000000	99.823586
3573.000000	99.822567
3572.000000	99.820185
3571.000000	99.815457
3570.000000	99.807405
3569.000000	99.796953
3568.000000	99.787561
3567.000000	99.782228
3566.000000	99.780362
3565.000000	99.779933
3564.000000	99.780686
3563.000000	99.783458
3562.000000	99.788017
3561.000000	99.792251
3560.000000	99.793361
3559.000000	99.790139
3558.000000	99.784202
3557.000000	99.778739
3556.000000	99.775678
3555.000000	99.774200
3554.000000	99.772178
3553.000000	99.768800
3552.000000	99.765397
3551.000000	99.763857
3550.000000	99.764786
3549.000000	99.767204
3548.000000	99.769398
3547.000000	99.770076
3546.000000	99.769046
3545.000000	99.767014
3544.000000	99.764777
3543.000000	99.762601
3542.000000	99.760383
3541.000000	99.758292
3540.000000	99.756988
3539.000000	99.757067
3538.000000	99.758378
3537.000000	99.760021
3536.000000	99.761130
3535.000000	99.761618
3534.000000	99.762023
3533.000000	99.762760
3532.000000	99.763562
3531.000000	99.763671
3530.000000	99.762570
3529.000000	99.760609
3528.000000	99.758975
3527.000000	99.758777
3526.000000	99.760157
3525.000000	99.762238
3524.000000	99.763798
3523.000000	99.764218
3522.000000	99.763759
3521.000000	99.763232
3520.000000	99.763375
3519.000000	99.764399
3518.000000	99.765962
3517.000000	99.767456
3516.000000	99.768373
3515.000000	99.768525
3514.000000	99.768081
3513.000000	99.767499
3512.000000	99.767250
3511.000000	99.767439
3510.000000	99.767777
3509.000000	99.768110
3508.000000	99.768848
3507.000000	99.770531
3506.000000	99.772999
3505.000000	99.775325
3504.000000	99.776672
3503.000000	99.777028
3502.000000	99.776898
3501.000000	99.776646
3500.000000	99.776470
3499.000000	99.776719
3498.000000	99.777704
3497.000000	99.779152
3496.000000	99.780200
3495.000000	99.780081
3494.000000	99.778639
3493.000000	99.776256
3492.000000	99.773606
3491.000000	99.771448
3490.000000	99.770284
3489.000000	99.769946
3488.000000	99.769735
3487.000000	99.769169
3486.000000	99.768489
3485.000000	99.768272
3484.000000	99.768742
3483.000000	99.769597
3482.000000	99.770283
3481.000000	99.770237
3480.000000	99.769105
3479.000000	99.766983
3478.000000	99.764347
3477.000000	99.761605
3476.000000	99.758832
3475.000000	99.756110
3474.000000	99.753978
3473.000000	99.753148
3472.000000	99.753676
3471.000000	99.754571
3470.000000	99.754436
3469.000000	99.752622
3468.000000	99.749546
3467.000000	99.746227
3466.000000	99.743481
3465.000000	99.741531
3464.000000	99.740176
3463.000000	99.739067
3462.000000	99.737867
3461.000000	99.736320
3460.000000	99.734326
3459.000000	99.731995
3458.000000	99.729630
3457.000000	99.727533
3456.000000	99.725698
3455.000000	99.723726
3454.000000	99.721196
3453.000000	99.718184
3452.000000	99.715321
3451.000000	99.713233
3450.000000	99.711955
3449.000000	99.710886
3448.000000	99.709231
3447.000000	99.706458
3446.000000	99.702544
3445.000000	99.698077
3444.000000	99.694047
3443.000000	99.691236
3442.000000	99.689661
3441.000000	99.688681
3440.000000	99.687759
3439.000000	99.686883
3438.000000	99.686129
3437.000000	99.685165
3436.000000	99.683520
3435.000000	99.681307
3434.000000	99.679387
3433.000000	99.678679
3432.000000	99.679290
3431.000000	99.680311
3430.000000	99.680417
3429.000000	99.678736
3428.000000	99.675253
3427.000000	99.670568
3426.000000	99.665447
3425.000000	99.660559
3424.000000	99.656617
3423.000000	99.654483
3422.000000	99.654632
3421.000000	99.656461
3420.000000	99.658358
3419.000000	99.658821
3418.000000	99.657470
3417.000000	99.654999
3416.000000	99.652553
3415.000000	99.651237
3414.000000	99.651774
3413.000000	99.654030
3412.000000	99.656878
3411.000000	99.658995
3410.000000	99.660013
3409.000000	99.660560
3408.000000	99.661175
3407.000000	99.661561
3406.000000	99.661119
3405.000000	99.659734
3404.000000	99.657642
3403.000000	99.654942
3402.000000	99.651871
3401.000000	99.649536
3400.000000	99.649495
3399.000000	99.652250
3398.000000	99.656469
3397.000000	99.659978
3396.000000	99.661754
3395.000000	99.662471
3394.000000	99.663191
3393.000000	99.664033
3392.000000	99.664339
3391.000000	99.663855
3390.000000	99.663216
3389.000000	99.663214
3388.000000	99.663946
3387.000000	99.664880
3386.000000	99.665467
3385.000000	99.665505
3384.000000	99.665079
3383.000000	99.664535
3382.000000	99.664484
3381.000000	99.665447
3380.000000	99.667299
3379.000000	99.669190
3378.000000	99.670290
3377.000000	99.670655
3376.000000	99.671215
3375.000000	99.672820
3374.000000	99.675412
3373.000000	99.678227
3372.000000	99.680693
3371.000000	99.682997
3370.000000	99.685641
3369.000000	99.688551
3368.000000	99.690893
3367.000000	99.691937
3366.000000	99.691849
3365.000000	99.691439
3364.000000	99.691285
3363.000000	99.691390
3362.000000	99.691584
3361.000000	99.691900
3360.000000	99.692528
3359.000000	99.693747
3358.000000	99.695920
3357.000000	99.699141
3356.000000	99.702767
3355.000000	99.705766
3354.000000	99.707812
3353.000000	99.709646
3352.000000	99.712091
3351.000000	99.714946
3350.000000	99.717282
3349.000000	99.718586
3348.000000	99.719064
3347.000000	99.718950
3346.000000	99.718169
3345.000000	99.716862
3344.000000	99.715769
3343.000000	99.715703
3342.000000	99.716869
3341.000000	99.718948
3340.000000	99.721586
3339.000000	99.724518
3338.000000	99.727264
3337.000000	99.729195
3336.000000	99.730108
3335.000000	99.730598
3334.000000	99.731671
3333.000000	99.733945
3332.000000	99.737264
3331.000000	99.740876
3330.000000	99.743944
3329.000000	99.746000
3328.000000	99.747073
3327.000000	99.747546
3326.000000	99.747883
3325.000000	99.748389
3324.000000	99.749193
3323.000000	99.750396
3322.000000	99.752114
3321.000000	99.754279
3320.000000	99.756499
3319.000000	99.758314
3318.000000	99.759657
3317.000000	99.760916
3316.000000	99.762493
3315.000000	99.764387
3314.000000	99.766275
3313.000000	99.767890
3312.000000	99.769240
3311.000000	99.770551
3310.000000	99.772130
3309.000000	99.774191
3308.000000	99.776652
3307.000000	99.779145
3306.000000	99.781336
3305.000000	99.783278
3304.000000	99.785297
3303.000000	99.787483
3302.000000	99.789491
3301.000000	99.791005
3300.000000	99.792251
3299.000000	99.793810
3298.000000	99.795934
3297.000000	99.798220
3296.000000	99.800036
3295.000000	99.801184
3294.000000	99.802012
3293.000000	99.803030
3292.000000	99.804469
3291.000000	99.806285
3290.000000	99.808399
3289.000000	99.810758
3288.000000	99.813250
3287.000000	99.815708
3286.000000	99.818064
3285.000000	99.820376
3284.000000	99.822639
3283.000000	99.824700
3282.000000	99.826456
3281.000000	99.828056
3280.000000	99.829754
3279.000000	99.831571
3278.000000	99.833271
3277.000000	99.834675
3276.000000	99.835853
3275.000000	99.836929
3274.000000	99.837873
3273.000000	99.838686
3272.000000	99.839728
3271.000000	99.841566
3270.000000	99.844391
3269.000000	99.847726
3268.000000	99.850743
3267.000000	99.852952
3266.000000	99.854433
3265.000000	99.855567
3264.000000	99.856692
3263.000000	99.858001
3262.000000	99.859575
3261.000000	99.861327
3260.000000	99.862958
3259.000000	99.864162
3258.000000	99.864931
3257.000000	99.865640
3256.000000	99.866822
3255.000000	99.868828
3254.000000	99.871654
3253.000000	99.874913
3252.000000	99.877917
3251.000000	99.880069
3250.000000	99.881216
3249.000000	99.881654
3248.000000	99.881846
3247.000000	99.882177
3246.000000	99.882990
3245.000000	99.884575
3244.000000	99.886852
3243.000000	99.889150
3242.000000	99.890640
3241.000000	99.891056
3240.000000	99.890880
3239.000000	99.890850
3238.000000	99.891295
3237.000000	99.892100
3236.000000	99.893153
3235.000000	99.894616
3234.000000	99.896677
3233.000000	99.899148
3232.000000	99.901457
3231.000000	99.903137
3230.000000	99.904314
3229.000000	99.905599
3228.000000	99.907413
3227.000000	99.909547
3226.000000	99.911573
3225.000000	99.913546
3224.000000	99.915927
3223.000000	99.918776
3222.000000	99.921387
3221.000000	99.922926
3220.000000	99.923274
3219.000000	99.923115
3218.000000	99.923355
3217.000000	99.924547
3216.000000	99.926684
3215.000000	99.929150
3214.000000	99.930905
3213.000000	99.931140
3212.000000	99.930023
3211.000000	99.928872
3210.000000	99.929286
3209.000000	99.931959
3208.000000	99.936231
3207.000000	99.940668
3206.000000	99.944381
3205.000000	99.947648
3204.000000	99.951069
3203.000000	99.954432
3202.000000	99.956933
3201.000000	99.958515
3200.000000	99.960177
3199.000000	99.962589
3198.000000	99.964973
3197.000000	99.966038
3196.000000	99.965630
3195.000000	99.964876
3194.000000	99.964846
3193.000000	99.965643
3192.000000	99.966831
3191.000000	99.968148
3190.000000	99.969671
3189.000000	99.971686
3188.000000	99.974597
3187.000000	99.978628
3186.000000	99.983356
3185.000000	99.987752
3184.000000	99.990977
3183.000000	99.993009
3182.000000	99.994444
3181.000000	99.995848
3180.000000	99.997382
3179.000000	99.998937
3178.000000	100.000370
3177.000000	100.001621
3176.000000	100.002755
3175.000000	100.003963
3174.000000	100.005504
3173.000000	100.007558
3172.000000	100.010094
3171.000000	100.012844
3170.000000	100.015505
3169.000000	100.018025
3168.000000	100.020620
3167.000000	100.023425
3166.000000	100.026233
3165.000000	100.028628
3164.000000	100.030362
3163.000000	100.031542
3162.000000	100.032578
3161.000000	100.033930
3160.000000	100.035802
3159.000000	100.038068
3158.000000	100.040398
3157.000000	100.042526
3156.000000	100.044418
3155.000000	100.046195
3154.000000	100.047972
3153.000000	100.049798
3152.000000	100.051685
3151.000000	100.053624
3150.000000	100.055575
3149.000000	100.057490
3148.000000	100.059361
3147.000000	100.061207
3146.000000	100.063038
3145.000000	100.064843
3144.000000	100.066605
3143.000000	100.068330
3142.000000	100.070040
3141.000000	100.071755
3140.000000	100.073477
3139.000000	100.075196
3138.000000	100.076899
3137.000000	100.078574
3136.000000	100.080221
3135.000000	100.081848
3134.000000	100.083467
3133.000000	100.085089
3132.000000	100.086717
3131.000000	100.088348
3130.000000	100.089975
3129.000000	100.091595
3128.000000	100.093205
3127.000000	100.094808
3126.000000	100.096406
3125.000000	100.098002
3124.000000	100.099596
3123.000000	100.101188
3122.000000	100.102782
3121.000000	100.104386
3120.000000	100.106020
3119.000000	100.107693
3118.000000	100.109370
3117.000000	100.110973
3116.000000	100.112449
3115.000000	100.113828
3114.000000	100.115224
3113.000000	100.116715
3112.000000	100.118290
3111.000000	100.119856
3110.000000	100.121327
3109.000000	100.122688
3108.000000	100.124024
3107.000000	100.125473
3106.000000	100.127127
3105.000000	100.128940
3104.000000	100.130711
3103.000000	100.132236
3102.000000	100.133471
3101.000000	100.134547
3100.000000	100.135632
3099.000000	100.136786
3098.000000	100.137969
3097.000000	100.139152
3096.000000	100.140371
3095.000000	100.141719
3094.000000	100.143315
3093.000000	100.145270
3092.000000	100.147588
3091.000000	100.150019
3090.000000	100.152070
3089.000000	100.153336
3088.000000	100.153844
3087.000000	100.154026
3086.000000	100.154303
3085.000000	100.154773
3084.000000	100.155379
3083.000000	100.156180
3082.000000	100.157292
3081.000000	100.158609
3080.000000	100.159808
3079.000000	100.160732
3078.000000	100.161661
3077.000000	100.163080
3076.000000	100.165233
3075.000000	100.167905
3074.000000	100.170465
3073.000000	100.172194
3072.000000	100.172835
3071.000000	100.172888
3070.000000	100.173339
3069.000000	100.174704
3068.000000	100.176609
3067.000000	100.178372
3066.000000	100.179882
3065.000000	100.181572
3064.000000	100.183634
3063.000000	100.185679
3062.000000	100.187273
3061.000000	100.188436
3060.000000	100.189458
3059.000000	100.190501
3058.000000	100.191548
3057.000000	100.192591
3056.000000	100.193636
3055.000000	100.194674
3054.000000	100.195807
3053.000000	100.197276
3052.000000	100.199160
3051.000000	100.201202
3050.000000	100.203110
3049.000000	100.204921
3048.000000	100.206789
3047.000000	100.208517
3046.000000	100.209667
3045.000000	100.210147
3044.000000	100.210395
3043.000000	100.210946
3042.000000	100.211955
3041.000000	100.213332
3040.000000	100.215104
3039.000000	100.217342
3038.000000	100.219852
3037.000000	100.222228
3036.000000	100.224271
3035.000000	100.226135
3034.000000	100.228013
3033.000000	100.229810
3032.000000	100.231249
3031.000000	100.232230
3030.000000	100.233063
3029.000000	100.234289
3028.000000	100.236189
3027.000000	100.238494
3026.000000	100.240561
3025.000000	100.241990
3024.000000	100.242978
3023.000000	100.244076
3022.000000	100.245605
3021.000000	100.247402
3020.000000	100.249135
3019.000000	100.250764
3018.000000	100.252594
3017.000000	100.254895
3016.000000	100.257542
3015.000000	100.260027
3014.000000	100.261904
3013.000000	100.263313
3012.000000	100.264989
3011.000000	100.267533
3010.000000	100.270639
3009.000000	100.273301
3008.000000	100.274918
3007.000000	100.275892
3006.000000	100.276946
3005.000000	100.278079
3004.000000	100.278629
3003.000000	100.278380
3002.000000	100.278147
3001.000000	100.278989
3000.000000	100.281138
2999.000000	100.283925
2998.000000	100.286665
2997.000000	100.289341
2996.000000	100.292232
2995.000000	100.295244
2994.000000	100.297967
2993.000000	100.300305
2992.000000	100.302586
2991.000000	100.304891
2990.000000	100.306689
2989.000000	100.307517
2988.000000	100.307815
2987.000000	100.308665
2986.000000	100.310762
2985.000000	100.314000
2984.000000	100.317978
2983.000000	100.322411
2982.000000	100.326843
2981.000000	100.330392
2980.000000	100.332202
2979.000000	100.332161
2978.000000	100.331053
2977.000000	100.329991
2976.000000	100.329665
2975.000000	100.330074
2974.000000	100.330920
2973.000000	100.332175
2972.000000	100.334150
2971.000000	100.336933
2970.000000	100.339978
2969.000000	100.342428
2968.000000	100.343694
2967.000000	100.343543
2966.000000	100.342000
2965.000000	100.339695
2964.000000	100.338041
2963.000000	100.338211
2962.000000	100.339777
2961.000000	100.340920
2960.000000	100.340403
2959.000000	100.339001
2958.000000	100.338572
2957.000000	100.340088
2956.000000	100.343115
2955.000000	100.346736
2954.000000	100.350301
2953.000000	100.353314
2952.000000	100.355290
2951.000000	100.356206
2950.000000	100.356732
2949.000000	100.357596
2948.000000	100.358675
2947.000000	100.359107
2946.000000	100.358409
2945.000000	100.357240
2944.000000	100.356797
2943.000000	100.357507
2942.000000	100.358712
2941.000000	100.359683
2940.000000	100.360524
2939.000000	100.361697
2938.000000	100.363012
2937.000000	100.363700
2936.000000	100.363556
2935.000000	100.363432
2934.000000	100.364245
2933.000000	100.365912
2932.000000	100.367616
2931.000000	100.368953
2930.000000	100.370414
2929.000000	100.372742
2928.000000	100.376070
2927.000000	100.379681
2926.000000	100.382489
2925.000000	100.383918
2924.000000	100.384385
2923.000000	100.384790
2922.000000	100.385379
2921.000000	100.385477
2920.000000	100.384623
2919.000000	100.383466
2918.000000	100.383119
2917.000000	100.383884
2916.000000	100.385233
2915.000000	100.386932
2914.000000	100.389422
2913.000000	100.392910
2912.000000	100.396604
2911.000000	100.399285
2910.000000	100.400485
2909.000000	100.400726
2908.000000	100.400735
2907.000000	100.400714
2906.000000	100.400356
2905.000000	100.399340
2904.000000	100.397733
2903.000000	100.396122
2902.000000	100.395349
2901.000000	100.395926
2900.000000	100.397552
2899.000000	100.399239
2898.000000	100.400157
2897.000000	100.400354
2896.000000	100.400554
2895.000000	100.401256
2894.000000	100.402108
2893.000000	100.402310
2892.000000	100.401580
2891.000000	100.400572
2890.000000	100.400209
2889.000000	100.400737
2888.000000	100.401620
2887.000000	100.402265
2886.000000	100.402639
2885.000000	100.403089
2884.000000	100.403838
2883.000000	100.404890
2882.000000	100.406293
2881.000000	100.408074
2880.000000	100.409745
2879.000000	100.410274
2878.000000	100.409028
2877.000000	100.406729
2876.000000	100.405143
2875.000000	100.405367
2874.000000	100.406699
2873.000000	100.407328
2872.000000	100.406082
2871.000000	100.403350
2870.000000	100.400562
2869.000000	100.399054
2868.000000	100.399344
2867.000000	100.401029
2866.000000	100.403053
2865.000000	100.404455
2864.000000	100.405067
2863.000000	100.405388
2862.000000	100.405849
2861.000000	100.406514
2860.000000	100.407503
2859.000000	100.409183
2858.000000	100.411660
2857.000000	100.414454
2856.000000	100.417004
2855.000000	100.419144
2854.000000	100.420699
2853.000000	100.420913
2852.000000	100.418920
2851.000000	100.414821
2850.000000	100.409936
2849.000000	100.405801
2848.000000	100.403009
2847.000000	100.401088
2846.000000	100.399317
2845.000000	100.397649
2844.000000	100.396846
2843.000000	100.397526
2842.000000	100.399077
2841.000000	100.399900
2840.000000	100.399094
2839.000000	100.397620
2838.000000	100.397294
2837.000000	100.398688
2836.000000	100.400558
2835.000000	100.401403
2834.000000	100.401151
2833.000000	100.400868
2832.000000	100.401151
2831.000000	100.401451
2830.000000	100.401093
2829.000000	100.400449
2828.000000	100.400659
2827.000000	100.402291
2826.000000	100.404647
2825.000000	100.406390
2824.000000	100.406722
2823.000000	100.405856
2822.000000	100.404656
2821.000000	100.404052
2820.000000	100.404544
2819.000000	100.405985
2818.000000	100.407690
2817.000000	100.408930
2816.000000	100.409520
2815.000000	100.409856
2814.000000	100.410448
2813.000000	100.411513
2812.000000	100.412956
2811.000000	100.414539
2810.000000	100.415994
2809.000000	100.417099
2808.000000	100.417786
2807.000000	100.418203
2806.000000	100.418635
2805.000000	100.419328
2804.000000	100.420338
2803.000000	100.421556
2802.000000	100.422809
2801.000000	100.423947
2800.000000	100.424949
2799.000000	100.425911
2798.000000	100.426950
2797.000000	100.428094
2796.000000	100.429274
2795.000000	100.430412
2794.000000	100.431481
2793.000000	100.432502
2792.000000	100.433502
2791.000000	100.434499
2790.000000	100.435498
2789.000000	100.436497
2788.000000	100.437494
2787.000000	100.438488
2786.000000	100.439484
2785.000000	100.440482
2784.000000	100.441476
2783.000000	100.442455
2782.000000	100.443407
2781.000000	100.444324
2780.000000	100.445208
2779.000000	100.446071
2778.000000	100.446921
2777.000000	100.447761
2776.000000	100.448590
2775.000000	100.449410
2774.000000	100.450221
2773.000000	100.451020
2772.000000	100.451800
2771.000000	100.452557
2770.000000	100.453287
2769.000000	100.453994
2768.000000	100.454685
2767.000000	100.455371
2766.000000	100.456057
2765.000000	100.456743
2764.000000	100.457420
2763.000000	100.458079
2762.000000	100.458717
2761.000000	100.459338
2760.000000	100.459950
2759.000000	100.460560
2758.000000	100.461168
2757.000000	100.461769
2756.000000	100.462356
2755.000000	100.462928
2754.000000	100.463487
2753.000000	100.464037
2752.000000	100.464585
2751.000000	100.465130
2750.000000	100.465671
2749.000000	100.466206
2748.000000	100.466730
2747.000000	100.467240
2746.000000	100.467733
2745.000000	100.468203
2744.000000	100.468648
2743.000000	100.469076
2742.000000	100.469505
2741.000000	100.469948
2740.000000	100.470399
2739.000000	100.470840
2738.000000	100.471263
2737.000000	100.471679
2736.000000	100.472114
2735.000000	100.472581
2734.000000	100.473046
2733.000000	100.473450
2732.000000	100.473774
2731.000000	100.474062
2730.000000	100.474379
2729.000000	100.474770
2728.000000	100.475283
2727.000000	100.475948
2726.000000	100.476668
2725.000000	100.477224
2724.000000	100.477509
2723.000000	100.477711
2722.000000	100.478152
2721.000000	100.478869
2720.000000	100.479532
2719.000000	100.479847
2718.000000	100.479858
2717.000000	100.479776
2716.000000	100.479728
2715.000000	100.479786
2714.000000	100.480094
2713.000000	100.480735
2712.000000	100.481544
2711.000000	100.482186
2710.000000	100.482476
2709.000000	100.482470
2708.000000	100.482299
2707.000000	100.482031
2706.000000	100.481690
2705.000000	100.481325
2704.000000	100.481023
2703.000000	100.480906
2702.000000	100.481075
2701.000000	100.481512
2700.000000	100.482051
2699.000000	100.482491
2698.000000	100.482762
2697.000000	100.482902
2696.000000	100.482946
2695.000000	100.482888
2694.000000	100.482754
2693.000000	100.482654
2692.000000	100.482684
2691.000000	100.482833
2690.000000	100.483000
2689.000000	100.483095
2688.000000	100.483109
2687.000000	100.483087
2686.000000	100.483069
2685.000000	100.483069
2684.000000	100.483080
2683.000000	100.483090
2682.000000	100.483089
2681.000000	100.483070
2680.000000	100.483022
2679.000000	100.482923
2678.000000	100.482752
2677.000000	100.482531
2676.000000	100.482351
2675.000000	100.482304
2674.000000	100.482375
2673.000000	100.482405
2672.000000	100.482246
2671.000000	100.481926
2670.000000	100.481647
2669.000000	100.481575
2668.000000	100.481708
2667.000000	100.481934
2666.000000	100.482145
2665.000000	100.482257
2664.000000	100.482193
2663.000000	100.481987
2662.000000	100.481864
2661.000000	100.482088
2660.000000	100.482674
2659.000000	100.483277
2658.000000	100.483440
2657.000000	100.482990
2656.000000	100.482192
2655.000000	100.481560
2654.000000	100.481404
2653.000000	100.481560
2652.000000	100.481579
2651.000000	100.481207
2650.000000	100.480660
2649.000000	100.480383
2648.000000	100.480548
2647.000000	100.480796
2646.000000	100.480456
2645.000000	100.479092
2644.000000	100.476964
2643.000000	100.475010
2642.000000	100.474118
2641.000000	100.474394
2640.000000	100.475210
2639.000000	100.475936
2638.000000	100.476443
2637.000000	100.476809
2636.000000	100.476966
2635.000000	100.476901
2634.000000	100.476922
2633.000000	100.477416
2632.000000	100.478478
2631.000000	100.479951
2630.000000	100.481561
2629.000000	100.482789
2628.000000	100.482971
2627.000000	100.481944
2626.000000	100.480492
2625.000000	100.479692
2624.000000	100.479720
2623.000000	100.479815
2622.000000	100.479376
2621.000000	100.478646
2620.000000	100.478203
2619.000000	100.478210
2618.000000	100.478432
2617.000000	100.478656
2616.000000	100.478827
2615.000000	100.478996
2614.000000	100.479358
2613.000000	100.480142
2612.000000	100.481235
2611.000000	100.482108
2610.000000	100.482407
2609.000000	100.482381
2608.000000	100.482470
2607.000000	100.482614
2606.000000	100.482373
2605.000000	100.481682
2604.000000	100.481106
2603.000000	100.481203
2602.000000	100.481940
2601.000000	100.482836
2600.000000	100.483496
2599.000000	100.483842
2598.000000	100.483951
2597.000000	100.483910
2596.000000	100.483840
2595.000000	100.483884
2594.000000	100.484076
2593.000000	100.484246
2592.000000	100.484147
2591.000000	100.483689
2590.000000	100.483028
2589.000000	100.482487
2588.000000	100.482310
2587.000000	100.482489
2586.000000	100.482787
2585.000000	100.482920
2584.000000	100.482801
2583.000000	100.482565
2582.000000	100.482401
2581.000000	100.482348
2580.000000	100.482277
2579.000000	100.482059
2578.000000	100.481719
2577.000000	100.481428
2576.000000	100.481342
2575.000000	100.481464
2574.000000	100.481647
2573.000000	100.481732
2572.000000	100.481687
2571.000000	100.481621
2570.000000	100.481655
2569.000000	100.481785
2568.000000	100.481912
2567.000000	100.481982
2566.000000	100.482059
2565.000000	100.482220
2564.000000	100.482439
2563.000000	100.482603
2562.000000	100.482646
2561.000000	100.482627
2560.000000	100.482682
2559.000000	100.482883
2558.000000	100.483191
2557.000000	100.483501
2556.000000	100.483734
2555.000000	100.483890
2554.000000	100.484031
2553.000000	100.484234
2552.000000	100.484526
2551.000000	100.484875
2550.000000	100.485240
2549.000000	100.485609
2548.000000	100.485965
2547.000000	100.486249
2546.000000	100.486416
2545.000000	100.486499
2544.000000	100.486601
2543.000000	100.486786
2542.000000	100.487054
2541.000000	100.487373
2540.000000	100.487713
2539.000000	100.488039
2538.000000	100.488313
2537.000000	100.488529
2536.000000	100.488743
2535.000000	100.489027
2534.000000	100.489397
2533.000000	100.489801
2532.000000	100.490151
2531.000000	100.490401
2530.000000	100.490586
2529.000000	100.490788
2528.000000	100.491048
2527.000000	100.491315
2526.000000	100.491520
2525.000000	100.491665
2524.000000	100.491804
2523.000000	100.491947
2522.000000	100.492061
2521.000000	100.492187
2520.000000	100.492460
2519.000000	100.492938
2518.000000	100.493506
2517.000000	100.494000
2516.000000	100.494382
2515.000000	100.494724
2514.000000	100.495083
2513.000000	100.495449
2512.000000	100.495778
2511.000000	100.496026
2510.000000	100.496165
2509.000000	100.496252
2508.000000	100.496427
2507.000000	100.496785
2506.000000	100.497269
2505.000000	100.497721
2504.000000	100.498046
2503.000000	100.498288
2502.000000	100.498584
2501.000000	100.499051
2500.000000	100.499718
2499.000000	100.500496
2498.000000	100.501210
2497.000000	100.501737
2496.000000	100.502104
2495.000000	100.502453
2494.000000	100.502877
2493.000000	100.503330
2492.000000	100.503750
2491.000000	100.504182
2490.000000	100.504706
2489.000000	100.505302
2488.000000	100.505861
2487.000000	100.506343
2486.000000	100.506833
2485.000000	100.507413
2484.000000	100.508035
2483.000000	100.508561
2482.000000	100.508936
2481.000000	100.509249
2480.000000	100.509634
2479.000000	100.510120
2478.000000	100.510638
2477.000000	100.511156
2476.000000	100.511760
2475.000000	100.512541
2474.000000	100.513463
2473.000000	100.514335
2472.000000	100.514980
2471.000000	100.515374
2470.000000	100.515622
2469.000000	100.515872
2468.000000	100.516222
2467.000000	100.516695
2466.000000	100.517242
2465.000000	100.517768
2464.000000	100.518187
2463.000000	100.518502
2462.000000	100.518816
2461.000000	100.519256
2460.000000	100.519855
2459.000000	100.520548
2458.000000	100.521280
2457.000000	100.522046
2456.000000	100.522823
2455.000000	100.523499
2454.000000	100.523959
2453.000000	100.524230
2452.000000	100.524471
2451.000000	100.524803
2450.000000	100.525235
2449.000000	100.525754
2448.000000	100.526390
2447.000000	100.527132
2446.000000	100.527840
2445.000000	100.528341
2444.000000	100.528598
2443.000000	100.528728
2442.000000	100.528887
2441.000000	100.529171
2440.000000	100.529610
2439.000000	100.530151
2438.000000	100.530657
2437.000000	100.531055
2436.000000	100.531464
2435.000000	100.532028
2434.000000	100.532622
2433.000000	100.532935
2432.000000	100.532921
2431.000000	100.532980
2430.000000	100.533521
2429.000000	100.534494
2428.000000	100.535499
2427.000000	100.536273
2426.000000	100.536863
2425.000000	100.537427
2424.000000	100.538008
2423.000000	100.538468
2422.000000	100.538550
2421.000000	100.538096
2420.000000	100.537322
2419.000000	100.536765
2418.000000	100.536782
2417.000000	100.537232
2416.000000	100.537765
2415.000000	100.538327
2414.000000	100.539154
2413.000000	100.540279
2412.000000	100.541272
2411.000000	100.541611
2410.000000	100.541145
2409.000000	100.540179
2408.000000	100.539260
2407.000000	100.538814
2406.000000	100.538868
2405.000000	100.539099
2404.000000	100.539245
2403.000000	100.539421
2402.000000	100.539967
2401.000000	100.540928
2400.000000	100.541973
2399.000000	100.542845
2398.000000	100.543512
2397.000000	100.544060
2396.000000	100.544557
2395.000000	100.545061
2394.000000	100.545624
2393.000000	100.546247
2392.000000	100.546879
2391.000000	100.547473
2390.000000	100.548022
2389.000000	100.548534
2388.000000	100.549018
2387.000000	100.549495
2386.000000	100.549987
2385.000000	100.550494
2384.000000	100.551013
2383.000000	100.551549
2382.000000	100.552098
2381.000000	100.552661
2380.000000	100.553236
2379.000000	100.553827
2378.000000	100.554430
2377.000000	100.555036
2376.000000	100.555638
2375.000000	100.556231
2374.000000	100.556811
2373.000000	100.557371
2372.000000	100.557912
2371.000000	100.558438
2370.000000	100.558956
2369.000000	100.559469
2368.000000	100.559975
2367.000000	100.560471
2366.000000	100.560951
2365.000000	100.561411
2364.000000	100.561846
2363.000000	100.562255
2362.000000	100.562641
2361.000000	100.563003
2360.000000	100.563332
2359.000000	100.563617
2358.000000	100.563862
2357.000000	100.564084
2356.000000	100.564297
2355.000000	100.564496
2354.000000	100.564660
2353.000000	100.564769
2352.000000	100.564816
2351.000000	100.564807
2350.000000	100.564760
2349.000000	100.564689
2348.000000	100.564605
2347.000000	100.564510
2346.000000	100.564403
2345.000000	100.564281
2344.000000	100.564140
2343.000000	100.563977
2342.000000	100.563787
2341.000000	100.563569
2340.000000	100.563324
2339.000000	100.563050
2338.000000	100.562744
2337.000000	100.562396
2336.000000	100.562003
2335.000000	100.561565
2334.000000	100.561089
2333.000000	100.560579
2332.000000	100.560043
2331.000000	100.559483
2330.000000	100.558905
2329.000000	100.558311
2328.000000	100.557697
2327.000000	100.557063
2326.000000	100.556409
2325.000000	100.555738
2324.000000	100.555056
2323.000000	100.554366
2322.000000	100.553657
2321.000000	100.552909
2320.000000	100.552112
2319.000000	100.551288
2318.000000	100.550455
2317.000000	100.549631
2316.000000	100.548851
2315.000000	100.548153
2314.000000	100.547506
2313.000000	100.546773
2312.000000	100.545858
2311.000000	100.544799
2310.000000	100.543748
2309.000000	100.542896
2308.000000	100.542387
2307.000000	100.542209
2306.000000	100.542048
2305.000000	100.541462
2304.000000	100.540261
2303.000000	100.538639
2302.000000	100.537057
2301.000000	100.535808
2300.000000	100.534820
2299.000000	100.533846
2298.000000	100.532768
2297.000000	100.531670
2296.000000	100.530675
2295.000000	100.529762
2294.000000	100.528885
2293.000000	100.528083
2292.000000	100.527448
2291.000000	100.526974
2290.000000	100.526527
2289.000000	100.525942
2288.000000	100.525160
2287.000000	100.524257
2286.000000	100.523371
2285.000000	100.522596
2284.000000	100.521892
2283.000000	100.521149
2282.000000	100.520333
2281.000000	100.519539
2280.000000	100.518823
2279.000000	100.518074
2278.000000	100.517131
2277.000000	100.516026
2276.000000	100.514995
2275.000000	100.514201
2274.000000	100.513544
2273.000000	100.512788
2272.000000	100.511859
2271.000000	100.510961
2270.000000	100.510382
2269.000000	100.510208
2268.000000	100.510229
2267.000000	100.510078
2266.000000	100.509548
2265.000000	100.508742
2264.000000	100.507953
2263.000000	100.507342
2262.000000	100.506819
2261.000000	100.506235
2260.000000	100.505572
2259.000000	100.504888
2258.000000	100.504181
2257.000000	100.503432
2256.000000	100.502712
2255.000000	100.502158
2254.000000	100.501848
2253.000000	100.501721
2252.000000	100.501596
2251.000000	100.501236
2250.000000	100.500491
2249.000000	100.499439
2248.000000	100.498375
2247.000000	100.497517
2246.000000	100.496789
2245.000000	100.496019
2244.000000	100.495324
2243.000000	100.495042
2242.000000	100.495255
2241.000000	100.495582
2240.000000	100.495530
2239.000000	100.494953
2238.000000	100.494113
2237.000000	100.493454
2236.000000	100.493327
2235.000000	100.493795
2234.000000	100.494532
2233.000000	100.494976
2232.000000	100.494776
2231.000000	100.494023
2230.000000	100.493068
2229.000000	100.492131
2228.000000	100.491223
2227.000000	100.490402
2226.000000	100.489861
2225.000000	100.489719
2224.000000	100.489829
2223.000000	100.489871
2222.000000	100.489705
2221.000000	100.489611
2220.000000	100.490028
2219.000000	100.490973
2218.000000	100.491865
2217.000000	100.492115
2216.000000	100.491870
2215.000000	100.491869
2214.000000	100.492539
2213.000000	100.493539
2212.000000	100.494306
2211.000000	100.494752
2210.000000	100.495165
2209.000000	100.495706
2208.000000	100.496343
2207.000000	100.497124
2206.000000	100.498072
2205.000000	100.498810
2204.000000	100.498753
2203.000000	100.497829
2202.000000	100.496697
2201.000000	100.496074
2200.000000	100.495947
2199.000000	100.495693
2198.000000	100.494929
2197.000000	100.494036
2196.000000	100.493677
2195.000000	100.493971
2194.000000	100.494453
2193.000000	100.494795
2192.000000	100.495287
2191.000000	100.496380
2190.000000	100.497951
2189.000000	100.499266
2188.000000	100.499741
2187.000000	100.499526
2186.000000	100.499306
2185.000000	100.499618
2184.000000	100.500407
2183.000000	100.501206
2182.000000	100.501640
2181.000000	100.501760
2180.000000	100.501877
2179.000000	100.502193
2178.000000	100.502649
2177.000000	100.503092
2176.000000	100.503447
2175.000000	100.503693
2174.000000	100.503824
2173.000000	100.503903
2172.000000	100.504053
2171.000000	100.504329
2170.000000	100.504663
2169.000000	100.504970
2168.000000	100.505265
2167.000000	100.505592
2166.000000	100.505918
2165.000000	100.506165
2164.000000	100.506341
2163.000000	100.506536
2162.000000	100.506823
2161.000000	100.507189
2160.000000	100.507568
2159.000000	100.507901
2158.000000	100.508183
2157.000000	100.508447
2156.000000	100.508726
2155.000000	100.509024
2154.000000	100.509321
2153.000000	100.509604
2152.000000	100.509875
2151.000000	100.510147
2150.000000	100.510428
2149.000000	100.510722
2148.000000	100.511031
2147.000000	100.511354
2146.000000	100.511686
2145.000000	100.512019
2144.000000	100.512350
2143.000000	100.512682
2142.000000	100.513024
2141.000000	100.513389
2140.000000	100.513777
2139.000000	100.514177
2138.000000	100.514583
2137.000000	100.514989
2136.000000	100.515391
2135.000000	100.515791
2134.000000	100.516192
2133.000000	100.516594
2132.000000	100.516995
2131.000000	100.517391
2130.000000	100.517784
2129.000000	100.518177
2128.000000	100.518571
2127.000000	100.518967
2126.000000	100.519362
2125.000000	100.519757
2124.000000	100.520152
2123.000000	100.520552
2122.000000	100.520962
2121.000000	100.521377
2120.000000	100.521794
2119.000000	100.522215
2118.000000	100.522644
2117.000000	100.523084
2116.000000	100.523533
2115.000000	100.523986
2114.000000	100.524440
2113.000000	100.524897
2112.000000	100.525360
2111.000000	100.525831
2110.000000	100.526310
2109.000000	100.526792
2108.000000	100.527274
2107.000000	100.527750
2106.000000	100.528218
2105.000000	100.528678
2104.000000	100.529128
2103.000000	100.529571
2102.000000	100.530006
2101.000000	100.530436
2100.000000	100.530868
2099.000000	100.531302
2098.000000	100.531737
2097.000000	100.532191
2096.000000	100.532702
2095.000000	100.533270
2094.000000	100.533808
2093.000000	100.534194
2092.000000	100.534398
2091.000000	100.534523
2090.000000	100.534704
2089.000000	100.535001
2088.000000	100.535427
2087.000000	100.536021
2086.000000	100.536778
2085.000000	100.537518
2084.000000	100.538001
2083.000000	100.538191
2082.000000	100.538330
2081.000000	100.538648
2080.000000	100.539126
2079.000000	100.539615
2078.000000	100.539998
2077.000000	100.540199
2076.000000	100.540200
2075.000000	100.540147
2074.000000	100.540306
2073.000000	100.540753
2072.000000	100.541205
2071.000000	100.541338
2070.000000	100.541176
2069.000000	100.541053
2068.000000	100.541259
2067.000000	100.541763
2066.000000	100.542234
2065.000000	100.542267
2064.000000	100.541709
2063.000000	100.540840
2062.000000	100.540177
2061.000000	100.539993
2060.000000	100.540120
2059.000000	100.540208
2058.000000	100.540128
2057.000000	100.540062
2056.000000	100.540194
2055.000000	100.540400
2054.000000	100.540294
2053.000000	100.539617
2052.000000	100.538515
2051.000000	100.537436
2050.000000	100.536734
2049.000000	100.536399
2048.000000	100.536216
2047.000000	100.536038
2046.000000	100.535816
2045.000000	100.535398
2044.000000	100.534522
2043.000000	100.533095
2042.000000	100.531440
2041.000000	100.530123
2040.000000	100.529454
2039.000000	100.529248
2038.000000	100.529007
2037.000000	100.528347
2036.000000	100.527221
2035.000000	100.525822
2034.000000	100.524367
2033.000000	100.522985
2032.000000	100.521758
2031.000000	100.520755
2030.000000	100.519950
2029.000000	100.519174
2028.000000	100.518272
2027.000000	100.517271
2026.000000	100.516245
2025.000000	100.515015
2024.000000	100.513259
2023.000000	100.511088
2022.000000	100.509312
2021.000000	100.508828
2020.000000	100.509717
2019.000000	100.510994
2018.000000	100.511270
2017.000000	100.509760
2016.000000	100.506717
2015.000000	100.503172
2014.000000	100.500092
2013.000000	100.497683
2012.000000	100.495553
2011.000000	100.493485
2010.000000	100.491811
2009.000000	100.490773
2008.000000	100.489821
2007.000000	100.488097
2006.000000	100.485558
2005.000000	100.483062
2004.000000	100.481228
2003.000000	100.479834
2002.000000	100.478563
2001.000000	100.477785
2000.000000	100.477952
1999.000000	100.478650
1998.000000	100.479002
1997.000000	100.478938
1996.000000	100.479362
1995.000000	100.480900
1994.000000	100.482963
1993.000000	100.484264
1992.000000	100.484086
1991.000000	100.482751
1990.000000	100.480924
1989.000000	100.478905
1988.000000	100.476816
1987.000000	100.475070
1986.000000	100.474195
1985.000000	100.474274
1984.000000	100.474857
1983.000000	100.475451
1982.000000	100.475889
1981.000000	100.476223
1980.000000	100.476489
1979.000000	100.476722
1978.000000	100.476967
1977.000000	100.477031
1976.000000	100.476419
1975.000000	100.474865
1974.000000	100.472852
1973.000000	100.471240
1972.000000	100.470360
1971.000000	100.469792
1970.000000	100.469019
1969.000000	100.468134
1968.000000	100.467849
1967.000000	100.468826
1966.000000	100.470997
1965.000000	100.473460
1964.000000	100.475184
1963.000000	100.475877
1962.000000	100.476028
1961.000000	100.476079
1960.000000	100.475761
1959.000000	100.474547
1958.000000	100.472529
1957.000000	100.470509
1956.000000	100.469266
1955.000000	100.468975
1954.000000	100.469352
1953.000000	100.469940
1952.000000	100.470228
1951.000000	100.469914
1950.000000	100.469257
1949.000000	100.468936
1948.000000	100.469259
1947.000000	100.469679
1946.000000	100.469361
1945.000000	100.468081
1944.000000	100.466307
1943.000000	100.464600
1942.000000	100.463192
1941.000000	100.462136
1940.000000	100.461469
1939.000000	100.461095
1938.000000	100.460764
1937.000000	100.460315
1936.000000	100.459890
1935.000000	100.459720
1934.000000	100.459620
1933.000000	100.458879
1932.000000	100.456971
1931.000000	100.454312
1930.000000	100.452012
1929.000000	100.450883
1928.000000	100.450822
1927.000000	100.451160
1926.000000	100.451308
1925.000000	100.450889
1924.000000	100.449582
1923.000000	100.447313
1922.000000	100.444701
1921.000000	100.442830
1920.000000	100.442240
1919.000000	100.442308
1918.000000	100.441562
1917.000000	100.438927
1916.000000	100.434779
1915.000000	100.430582
1914.000000	100.427739
1913.000000	100.426558
1912.000000	100.425815
1911.000000	100.423743
1910.000000	100.419858
1909.000000	100.415696
1908.000000	100.413223
1907.000000	100.412737
1906.000000	100.412662
1905.000000	100.410976
1904.000000	100.406684
1903.000000	100.400337
1902.000000	100.393822
1901.000000	100.389274
1900.000000	100.387318
1899.000000	100.386524
1898.000000	100.385000
1897.000000	100.382195
1896.000000	100.378804
1895.000000	100.375458
1894.000000	100.372471
1893.000000	100.370553
1892.000000	100.370350
1891.000000	100.371108
1890.000000	100.370708
1889.000000	100.367871
1888.000000	100.363732
1887.000000	100.360171
1886.000000	100.357691
1885.000000	100.355561
1884.000000	100.352960
1883.000000	100.349663
1882.000000	100.346204
1881.000000	100.343703
1880.000000	100.343052
1879.000000	100.344203
1878.000000	100.346459
1877.000000	100.348985
1876.000000	100.350865
1875.000000	100.351196
1874.000000	100.349801
1873.000000	100.347808
1872.000000	100.346743
1871.000000	100.346965
1870.000000	100.347364
1869.000000	100.346742
1868.000000	100.345487
1867.000000	100.344967
1866.000000	100.345606
1865.000000	100.346793
1864.000000	100.347910
1863.000000	100.348912
1862.000000	100.350557
1861.000000	100.353984
1860.000000	100.359373
1859.000000	100.365152
1858.000000	100.369542
1857.000000	100.373123
1856.000000	100.378609
1855.000000	100.387431
1854.000000	100.397376
1853.000000	100.404355
1852.000000	100.406068
1851.000000	100.403343
1850.000000	100.398976
1849.000000	100.395855
1848.000000	100.395591
1847.000000	100.398165
1846.000000	100.402615
1845.000000	100.407591
1844.000000	100.411356
1843.000000	100.412686
1842.000000	100.412067
1841.000000	100.411165
1840.000000	100.411479
1839.000000	100.413503
1838.000000	100.416443
1837.000000	100.418975
1836.000000	100.420480
1835.000000	100.421257
1834.000000	100.421927
1833.000000	100.422949
1832.000000	100.424348
1831.000000	100.425728
1830.000000	100.426543
1829.000000	100.426712
1828.000000	100.426794
1827.000000	100.427064
1826.000000	100.427156
1825.000000	100.426691
1824.000000	100.425922
1823.000000	100.425488
1822.000000	100.425442
1821.000000	100.425154
1820.000000	100.424083
1819.000000	100.422357
1818.000000	100.420633
1817.000000	100.419664
1816.000000	100.420052
1815.000000	100.421832
1814.000000	100.424239
1813.000000	100.426064
1812.000000	100.426428
1811.000000	100.425339
1810.000000	100.423349
1809.000000	100.421221
1808.000000	100.419949
1807.000000	100.420266
1806.000000	100.422080
1805.000000	100.424725
1804.000000	100.427709
1803.000000	100.430765
1802.000000	100.433251
1801.000000	100.434101
1800.000000	100.432947
1799.000000	100.430753
1798.000000	100.428665
1797.000000	100.427144
1796.000000	100.426380
1795.000000	100.426820
1794.000000	100.429189
1793.000000	100.433696
1792.000000	100.438958
1791.000000	100.442914
1790.000000	100.444928
1789.000000	100.445782
1788.000000	100.446315
1787.000000	100.446683
1786.000000	100.446556
1785.000000	100.446108
1784.000000	100.446458
1783.000000	100.448465
1782.000000	100.451760
1781.000000	100.455059
1780.000000	100.457209
1779.000000	100.458309
1778.000000	100.459492
1777.000000	100.461790
1776.000000	100.465082
1775.000000	100.467887
1774.000000	100.468810
1773.000000	100.468372
1772.000000	100.468920
1771.000000	100.472169
1770.000000	100.477586
1769.000000	100.483546
1768.000000	100.489031
1767.000000	100.493808
1766.000000	100.497784
1765.000000	100.500746
1764.000000	100.502745
1763.000000	100.504346
1762.000000	100.505971
1761.000000	100.507175
1760.000000	100.507563
1759.000000	100.507876
1758.000000	100.509443
1757.000000	100.512721
1756.000000	100.516079
1755.000000	100.517563
1754.000000	100.517270
1753.000000	100.517048
1752.000000	100.518766
1751.000000	100.522328
1750.000000	100.525446
1749.000000	100.526354
1748.000000	100.525510
1747.000000	100.524473
1746.000000	100.524423
1745.000000	100.525400
1744.000000	100.526503
1743.000000	100.526769
1742.000000	100.525987
1741.000000	100.525000
1740.000000	100.525321
1739.000000	100.527642
1738.000000	100.530750
1737.000000	100.532459
1736.000000	100.531329
1735.000000	100.527488
1734.000000	100.523229
1733.000000	100.521308
1732.000000	100.521687
1731.000000	100.522404
1730.000000	100.522122
1729.000000	100.520658
1728.000000	100.518379
1727.000000	100.515836
1726.000000	100.513544
1725.000000	100.511792
1724.000000	100.510425
1723.000000	100.509103
1722.000000	100.507636
1721.000000	100.506108
1720.000000	100.504567
1719.000000	100.502814
1718.000000	100.500278
1717.000000	100.496817
1716.000000	100.493714
1715.000000	100.492094
1714.000000	100.491693
1713.000000	100.491709
1712.000000	100.491420
1711.000000	100.490286
1710.000000	100.488076
1709.000000	100.485061
1708.000000	100.481802
1707.000000	100.478641
1706.000000	100.475602
1705.000000	100.472746
1704.000000	100.470232
1703.000000	100.467840
1702.000000	100.465155
1701.000000	100.462158
1700.000000	100.459382
1699.000000	100.457071
1698.000000	100.454739
1697.000000	100.451983
1696.000000	100.448957
1695.000000	100.446012
1694.000000	100.443211
1693.000000	100.440414
1692.000000	100.437571
1691.000000	100.434714
1690.000000	100.431883
1689.000000	100.429084
1688.000000	100.426291
1687.000000	100.423482
1686.000000	100.420643
1685.000000	100.417773
1684.000000	100.414877
1683.000000	100.411964
1682.000000	100.409043
1681.000000	100.406116
1680.000000	100.403185
1679.000000	100.400251
1678.000000	100.397320
1677.000000	100.394407
1676.000000	100.391525
1675.000000	100.388630
1674.000000	100.385637
1673.000000	100.382506
1672.000000	100.379261
1671.000000	100.376014
1670.000000	100.372920
1669.000000	100.370029
1668.000000	100.367288
1667.000000	100.364645
1666.000000	100.361999
1665.000000	100.359120
1664.000000	100.355876
1663.000000	100.352558
1662.000000	100.349716
1661.000000	100.347586
1660.000000	100.345765
1659.000000	100.343705
1658.000000	100.341080
1657.000000	100.337951
1656.000000	100.334196
1655.000000	100.329608
1654.000000	100.324365
1653.000000	100.319865
1652.000000	100.318294
1651.000000	100.319446
1650.000000	100.321365
1649.000000	100.322580
1648.000000	100.321816
1647.000000	100.317341
1646.000000	100.309994
1645.000000	100.303346
1644.000000	100.299511
1643.000000	100.297981
1642.000000	100.297672
1641.000000	100.297578
1640.000000	100.297090
1639.000000	100.295617
1638.000000	100.292233
1637.000000	100.286604
1636.000000	100.281104
1635.000000	100.279414
1634.000000	100.281383
1633.000000	100.283354
1632.000000	100.283551
1631.000000	100.283217
1630.000000	100.284087
1629.000000	100.286127
1628.000000	100.287294
1627.000000	100.286173
1626.000000	100.283972
1625.000000	100.283219
1624.000000	100.285410
1623.000000	100.289526
1622.000000	100.293107
1621.000000	100.295259
1620.000000	100.296609
1619.000000	100.297720
1618.000000	100.298578
1617.000000	100.298871
1616.000000	100.299068
1615.000000	100.300479
1614.000000	100.303768
1613.000000	100.308274
1612.000000	100.312728
1611.000000	100.315995
1610.000000	100.318237
1609.000000	100.321296
1608.000000	100.326790
1607.000000	100.334061
1606.000000	100.340811
1605.000000	100.345292
1604.000000	100.347233
1603.000000	100.347564
1602.000000	100.347769
1601.000000	100.349049
1600.000000	100.351749
1599.000000	100.355553
1598.000000	100.360078
1597.000000	100.364917
1596.000000	100.369485
1595.000000	100.373325
1594.000000	100.376738
1593.000000	100.380714
1592.000000	100.385774
1591.000000	100.391254
1590.000000	100.396179
1589.000000	100.400546
1588.000000	100.405061
1587.000000	100.409784
1586.000000	100.413849
1585.000000	100.416694
1584.000000	100.418705
1583.000000	100.420577
1582.000000	100.422628
1581.000000	100.424720
1580.000000	100.426448
1579.000000	100.427509
1578.000000	100.428397
1577.000000	100.430795
1576.000000	100.435827
1575.000000	100.441643
1574.000000	100.445813
1573.000000	100.448343
1572.000000	100.450740
1571.000000	100.454618
1570.000000	100.459548
1569.000000	100.462822
1568.000000	100.463088
1567.000000	100.461852
1566.000000	100.461256
1565.000000	100.462570
1564.000000	100.465480
1563.000000	100.468764
1562.000000	100.471255
1561.000000	100.472430
1560.000000	100.473326
1559.000000	100.474361
1558.000000	100.475828
1557.000000	100.479265
1556.000000	100.482498
1555.000000	100.482303
1554.000000	100.479652
1553.000000	100.477307
1552.000000	100.477502
1551.000000	100.479956
1550.000000	100.483228
1549.000000	100.485713
1548.000000	100.487052
1547.000000	100.487760
1546.000000	100.488259
1545.000000	100.488110
1544.000000	100.486384
1543.000000	100.483434
1542.000000	100.481372
1541.000000	100.482004
1540.000000	100.483781
1539.000000	100.483497
1538.000000	100.481215
1537.000000	100.478405
1536.000000	100.475420
1535.000000	100.472418
1534.000000	100.469635
1533.000000	100.467672
1532.000000	100.467307
1531.000000	100.468792
1530.000000	100.470890
1529.000000	100.472048
1528.000000	100.471825
1527.000000	100.471041
1526.000000	100.470704
1525.000000	100.470784
1524.000000	100.470761
1523.000000	100.471075
1522.000000	100.472748
1521.000000	100.475199
1520.000000	100.476620
1519.000000	100.476544
1518.000000	100.476008
1517.000000	100.476133
1516.000000	100.477090
1515.000000	100.478159
1514.000000	100.478781
1513.000000	100.478991
1512.000000	100.479176
1511.000000	100.479528
1510.000000	100.479822
1509.000000	100.479825
1508.000000	100.479852
1507.000000	100.480295
1506.000000	100.480819
1505.000000	100.481113
1504.000000	100.481260
1503.000000	100.481443
1502.000000	100.481833
1501.000000	100.482359
1500.000000	100.482856
1499.000000	100.483267
1498.000000	100.483714
1497.000000	100.484153
1496.000000	100.484314
1495.000000	100.484127
1494.000000	100.483726
1493.000000	100.483238
1492.000000	100.482972
1491.000000	100.483539
1490.000000	100.485257
1489.000000	100.487190
1488.000000	100.487988
1487.000000	100.487428
1486.000000	100.486265
1485.000000	100.485451
1484.000000	100.485292
1483.000000	100.485461
1482.000000	100.485634
1481.000000	100.485728
1480.000000	100.485738
1479.000000	100.485496
1478.000000	100.484734
1477.000000	100.483274
1476.000000	100.481300
1475.000000	100.479386
1474.000000	100.478289
1473.000000	100.478467
1472.000000	100.479352
1471.000000	100.480060
1470.000000	100.480216
1469.000000	100.479715
1468.000000	100.478654
1467.000000	100.477399
1466.000000	100.476517
1465.000000	100.476664
1464.000000	100.478031
1463.000000	100.480178
1462.000000	100.482245
1461.000000	100.483706
1460.000000	100.484783
1459.000000	100.485836
1458.000000	100.486206
1457.000000	100.483849
1456.000000	100.479222
1455.000000	100.475157
1454.000000	100.471632
1453.000000	100.466681
1452.000000	100.460089
1451.000000	100.454084
1450.000000	100.451474
1449.000000	100.452534
1448.000000	100.454731
1447.000000	100.455125
1446.000000	100.453121
1445.000000	100.450028
1444.000000	100.447061
1443.000000	100.444627
1442.000000	100.442041
1441.000000	100.437963
1440.000000	100.431464
1439.000000	100.423087
1438.000000	100.415330
1437.000000	100.411467
1436.000000	100.412094
1435.000000	100.414382
1434.000000	100.415965
1433.000000	100.416894
1432.000000	100.418371
1431.000000	100.420165
1430.000000	100.419813
1429.000000	100.415575
1428.000000	100.409516
1427.000000	100.405516
1426.000000	100.405572
1425.000000	100.409417
1424.000000	100.415265
1423.000000	100.421025
1422.000000	100.425347
1421.000000	100.427578
1420.000000	100.427759
1419.000000	100.427109
1418.000000	100.427406
1417.000000	100.429005
1416.000000	100.431043
1415.000000	100.433127
1414.000000	100.435524
1413.000000	100.438317
1412.000000	100.441267
1411.000000	100.444076
1410.000000	100.446243
1409.000000	100.447018
1408.000000	100.446845
1407.000000	100.448094
1406.000000	100.453049
1405.000000	100.461274
1404.000000	100.469862
1403.000000	100.477140
1402.000000	100.483888
1401.000000	100.490640
1400.000000	100.495857
1399.000000	100.497274
1398.000000	100.495129
1397.000000	100.492395
1396.000000	100.492309
1395.000000	100.496680
1394.000000	100.504782
1393.000000	100.513500
1392.000000	100.519998
1391.000000	100.524020
1390.000000	100.526972
1389.000000	100.529408
1388.000000	100.530130
1387.000000	100.528589
1386.000000	100.527224
1385.000000	100.529073
1384.000000	100.534157
1383.000000	100.539964
1382.000000	100.544002
1381.000000	100.545304
1380.000000	100.544279
1379.000000	100.542013
1378.000000	100.540041
1377.000000	100.539813
1376.000000	100.541601
1375.000000	100.543869
1374.000000	100.544387
1373.000000	100.542639
1372.000000	100.540287
1371.000000	100.538986
1370.000000	100.538860
1369.000000	100.538973
1368.000000	100.538512
1367.000000	100.537847
1366.000000	100.538104
1365.000000	100.539701
1364.000000	100.541630
1363.000000	100.542111
1362.000000	100.540417
1361.000000	100.538044
1360.000000	100.537312
1359.000000	100.539206
1358.000000	100.542722
1357.000000	100.545561
1356.000000	100.545730
1355.000000	100.543119
1354.000000	100.539579
1353.000000	100.537336
1352.000000	100.537460
1351.000000	100.539437
1350.000000	100.541661
1349.000000	100.542663
1348.000000	100.542228
1347.000000	100.541593
1346.000000	100.542097
1345.000000	100.543488
1344.000000	100.544046
1343.000000	100.542738
1342.000000	100.540697
1341.000000	100.540063
1340.000000	100.541413
1339.000000	100.543061
1338.000000	100.543350
1337.000000	100.542483
1336.000000	100.541513
1335.000000	100.540820
1334.000000	100.540239
1333.000000	100.540068
1332.000000	100.541143
1331.000000	100.543563
1330.000000	100.545842
1329.000000	100.546066
1328.000000	100.543962
1327.000000	100.541289
1326.000000	100.539925
1325.000000	100.540034
1324.000000	100.540460
1323.000000	100.540695
1322.000000	100.541567
1321.000000	100.543791
1320.000000	100.546466
1319.000000	100.547542
1318.000000	100.545629
1317.000000	100.541096
1316.000000	100.535836
1315.000000	100.532286
1314.000000	100.532133
1313.000000	100.535216
1312.000000	100.539684
1311.000000	100.543509
1310.000000	100.545714
1309.000000	100.546343
1308.000000	100.546022
1307.000000	100.545602
1306.000000	100.545406
1305.000000	100.544560
1304.000000	100.541804
1303.000000	100.537619
1302.000000	100.534787
1301.000000	100.535888
1300.000000	100.540490
1299.000000	100.545464
1298.000000	100.547845
1297.000000	100.546832
1296.000000	100.543383
1295.000000	100.538897
1294.000000	100.534475
1293.000000	100.530648
1292.000000	100.527506
1291.000000	100.525320
1290.000000	100.524923
1289.000000	100.526833
1288.000000	100.529839
1287.000000	100.531096
1286.000000	100.528246
1285.000000	100.521363
1284.000000	100.512896
1283.000000	100.505986
1282.000000	100.502473
1281.000000	100.501704
1280.000000	100.501209
1279.000000	100.499258
1278.000000	100.497076
1277.000000	100.497843
1276.000000	100.503048
1275.000000	100.510465
1274.000000	100.516292
1273.000000	100.518500
1272.000000	100.517152
1271.000000	100.512474
1270.000000	100.504661
1269.000000	100.495716
1268.000000	100.489462
1267.000000	100.488487
1266.000000	100.491906
1265.000000	100.496840
1264.000000	100.501161
1263.000000	100.503912
1262.000000	100.504272
1261.000000	100.501760
1260.000000	100.497074
1259.000000	100.491385
1258.000000	100.485122
1257.000000	100.478544
1256.000000	100.472974
1255.000000	100.469711
1254.000000	100.467589
1253.000000	100.463185
1252.000000	100.454108
1251.000000	100.441123
1250.000000	100.426714
1249.000000	100.412535
1248.000000	100.398810
1247.000000	100.385394
1246.000000	100.372670
1245.000000	100.361342
1244.000000	100.351115
1243.000000	100.339385
1242.000000	100.322600
1241.000000	100.300698
1240.000000	100.279352
1239.000000	100.265079
1238.000000	100.257376
1237.000000	100.248304
1236.000000	100.231285
1235.000000	100.208361
1234.000000	100.187297
1233.000000	100.172623
1232.000000	100.160985
1231.000000	100.144529
1230.000000	100.117632
1229.000000	100.080955
1228.000000	100.039990
1227.000000	99.999500
1226.000000	99.959278
1225.000000	99.916179
1224.000000	99.869466
1223.000000	99.821365
1222.000000	99.771999
1221.000000	99.717103
1220.000000	99.652611
1219.000000	99.578979
1218.000000	99.499211
1217.000000	99.415217
1216.000000	99.328627
1215.000000	99.242643
1214.000000	99.159472
1213.000000	99.077171
1212.000000	98.992126
1211.000000	98.903690
1210.000000	98.813805
1209.000000	98.723166
1208.000000	98.630512
1207.000000	98.535317
1206.000000	98.439377
1205.000000	98.346184
1204.000000	98.259268
1203.000000	98.179563
1202.000000	98.103590
1201.000000	98.026107
1200.000000	97.945022
1199.000000	97.861590
1198.000000	97.776338
1197.000000	97.688805
1196.000000	97.601518
1195.000000	97.518922
1194.000000	97.440312
1193.000000	97.358679
1192.000000	97.269435
1191.000000	97.176054
1190.000000	97.083966
1189.000000	96.992814
1188.000000	96.898665
1187.000000	96.800783
1186.000000	96.702071
1185.000000	96.604571
1184.000000	96.507771
1183.000000	96.409841
1182.000000	96.308169
1181.000000	96.200493
1180.000000	96.087396
1179.000000	95.971797
1178.000000	95.854766
1177.000000	95.734432
1176.000000	95.609988
1175.000000	95.483377
1174.000000	95.355723
1173.000000	95.225891
1172.000000	95.094056
1171.000000	94.962638
1170.000000	94.832163
1169.000000	94.700688
1168.000000	94.569424
1167.000000	94.445169
1166.000000	94.336392
1165.000000	94.251846
1164.000000	94.203094
1163.000000	94.200146
1162.000000	94.240268
1161.000000	94.305575
1160.000000	94.374060
1159.000000	94.429236
1158.000000	94.459854
1157.000000	94.458716
1156.000000	94.425673
1155.000000	94.366943
1154.000000	94.288437
1153.000000	94.193364
1152.000000	94.087670
1151.000000	93.981549
1150.000000	93.881526
1149.000000	93.785518
1148.000000	93.689092
1147.000000	93.592088
1146.000000	93.496129
1145.000000	93.400470
1144.000000	93.303969
1143.000000	93.207160
1142.000000	93.109300
1141.000000	93.007104
1140.000000	92.899154
1139.000000	92.788391
1138.000000	92.678573
1137.000000	92.571616
1136.000000	92.468823
1135.000000	92.369828
1134.000000	92.269630
1133.000000	92.162297
1132.000000	92.048876
1131.000000	91.936620
1130.000000	91.829564
1129.000000	91.724872
1128.000000	91.618300
1127.000000	91.507284
1126.000000	91.389518
1125.000000	91.265982
1124.000000	91.145187
1123.000000	91.035924
1122.000000	90.934696
1121.000000	90.828231
1120.000000	90.709423
1119.000000	90.582990
1118.000000	90.455724
1117.000000	90.331057
1116.000000	90.213428
1115.000000	90.106551
1114.000000	90.005205
1113.000000	89.899488
1112.000000	89.789498
1111.000000	89.685073
1110.000000	89.589272
1109.000000	89.493410
1108.000000	89.390855
1107.000000	89.285130
1106.000000	89.181797
1105.000000	89.082556
1104.000000	88.989165
1103.000000	88.902653
1102.000000	88.817284
1101.000000	88.725817
1100.000000	88.631194
1099.000000	88.541803
1098.000000	88.455734
1097.000000	88.363575
1096.000000	88.266801
1095.000000	88.178433
1094.000000	88.103455
1093.000000	88.032960
1092.000000	87.959698
1091.000000	87.885228
1090.000000	87.810283
1089.000000	87.733813
1088.000000	87.663959
1087.000000	87.613487
1086.000000	87.580053
1085.000000	87.546099
1084.000000	87.502167
1083.000000	87.455206
1082.000000	87.410698
1081.000000	87.363322
1080.000000	87.310885
1079.000000	87.261661
1078.000000	87.220599
1077.000000	87.181061
1076.000000	87.135856
1075.000000	87.083779
1074.000000	87.020791
1073.000000	86.937517
1072.000000	86.829859
1071.000000	86.700736
1070.000000	86.549124
1069.000000	86.370236
1068.000000	86.168936
1067.000000	85.959187
1066.000000	85.746931
1065.000000	85.527737
1064.000000	85.304571
1063.000000	85.091952
1062.000000	84.897616
1061.000000	84.715038
1060.000000	84.538619
1059.000000	84.370975
1058.000000	84.210948
1057.000000	84.049991
1056.000000	83.885122
1055.000000	83.720929
1054.000000	83.555303
1053.000000	83.378616
1052.000000	83.190596
1051.000000	83.000834
1050.000000	82.808409
1049.000000	82.600873
1048.000000	82.377918
1047.000000	82.154329
1046.000000	81.935296
1045.000000	81.709740
1044.000000	81.471356
1043.000000	81.226622
1042.000000	80.979242
1041.000000	80.726395
1040.000000	80.474262
1039.000000	80.237457
1038.000000	80.018405
1037.000000	79.806970
1036.000000	79.604350
1035.000000	79.425862
1034.000000	79.275151
1033.000000	79.137448
1032.000000	79.004070
1031.000000	78.882124
1030.000000	78.773777
1029.000000	78.668335
1028.000000	78.562489
1027.000000	78.467450
1026.000000	78.388175
1025.000000	78.315326
1024.000000	78.244551
1023.000000	78.183817
1022.000000	78.134612
1021.000000	78.084869
1020.000000	78.026889
1019.000000	77.964472
1018.000000	77.898337
1017.000000	77.824059
1016.000000	77.748161
1015.000000	77.685391
1014.000000	77.635306
1013.000000	77.581718
1012.000000	77.519435
1011.000000	77.460794
1010.000000	77.412056
1009.000000	77.365716
1008.000000	77.320863
1007.000000	77.288208
1006.000000	77.268288
1005.000000	77.246506
1004.000000	77.217059
1003.000000	77.191459
1002.000000	77.176730
1001.000000	77.165680
1000.000000	77.155405
999.000000	77.155017
998.000000	77.167350
997.000000	77.181847
996.000000	77.192558
995.000000	77.205463
994.000000	77.222780
993.000000	77.239122
992.000000	77.258624
991.000000	77.296026
990.000000	77.354005
989.000000	77.417756
988.000000	77.478518
987.000000	77.545407
986.000000	77.628160
985.000000	77.725650
984.000000	77.836756
983.000000	77.965365
982.000000	78.109335
981.000000	78.260978
980.000000	78.422748
979.000000	78.606193
978.000000	78.811917
977.000000	79.026890
976.000000	79.244593
975.000000	79.471582
974.000000	79.711601
973.000000	79.959790
972.000000	80.214845
971.000000	80.480456
970.000000	80.752624
969.000000	81.021606
968.000000	81.287660
967.000000	81.558536
966.000000	81.830828
965.000000	82.091407
964.000000	82.338915
963.000000	82.586283
962.000000	82.839282
961.000000	83.089046
960.000000	83.328521
959.000000	83.560175
958.000000	83.784763
957.000000	83.998189
956.000000	84.202741
955.000000	84.406920
954.000000	84.611073
953.000000	84.806460
952.000000	84.989741
951.000000	85.164441
950.000000	85.328058
949.000000	85.473467
948.000000	85.604416
947.000000	85.734202
946.000000	85.866774
945.000000	85.993865
944.000000	86.112165
943.000000	86.227217
942.000000	86.338654
941.000000	86.438432
940.000000	86.527241
939.000000	86.616900
938.000000	86.712449
937.000000	86.806605
936.000000	86.895508
935.000000	86.984933
934.000000	87.077452
933.000000	87.168680
932.000000	87.260160
931.000000	87.360659
930.000000	87.470394
929.000000	87.578811
928.000000	87.682052
927.000000	87.787456
926.000000	87.896631
925.000000	87.999996
924.000000	88.093771
923.000000	88.187119
922.000000	88.285944
921.000000	88.384031
920.000000	88.477028
919.000000	88.570943
918.000000	88.668543
917.000000	88.760028
916.000000	88.836328
915.000000	88.902517
914.000000	88.971316
913.000000	89.051922
912.000000	89.149943
911.000000	89.268224
910.000000	89.402767
909.000000	89.547238
908.000000	89.704838
907.000000	89.884995
906.000000	90.085901
905.000000	90.293070
904.000000	90.499121
903.000000	90.712314
902.000000	90.940759
901.000000	91.180521
900.000000	91.424439
899.000000	91.671007
898.000000	91.918268
897.000000	92.159003
896.000000	92.388267
895.000000	92.607932
894.000000	92.819424
893.000000	93.019897
892.000000	93.209466
891.000000	93.394322
890.000000	93.578370
889.000000	93.758182
888.000000	93.929142
887.000000	94.090036
886.000000	94.239981
885.000000	94.378909
884.000000	94.513351
883.000000	94.653346
882.000000	94.800605
881.000000	94.947769
880.000000	95.091299
879.000000	95.235140
878.000000	95.378694
877.000000	95.512806
876.000000	95.634485
875.000000	95.756451
874.000000	95.894165
873.000000	96.048746
872.000000	96.208121
871.000000	96.359813
870.000000	96.499144
869.000000	96.630864
868.000000	96.766438
867.000000	96.914535
866.000000	97.070547
865.000000	97.219328
864.000000	97.350050
863.000000	97.464293
862.000000	97.569388
861.000000	97.670405
860.000000	97.771327
859.000000	97.877301
858.000000	97.990098
857.000000	98.104475
856.000000	98.213342
855.000000	98.314620
854.000000	98.410151
853.000000	98.499391
852.000000	98.577305
851.000000	98.639383
850.000000	98.688144
849.000000	98.733035
848.000000	98.781211
847.000000	98.828259
846.000000	98.861952
845.000000	98.876586
844.000000	98.878268
843.000000	98.872967
842.000000	98.856319
841.000000	98.822043
840.000000	98.774388
839.000000	98.722868
838.000000	98.668195
837.000000	98.603655
836.000000	98.529126
835.000000	98.454020
834.000000	98.386513
833.000000	98.329074
832.000000	98.284572
831.000000	98.256400
830.000000	98.241372
829.000000	98.233118
828.000000	98.234276
827.000000	98.253778
826.000000	98.289396
825.000000	98.325708
824.000000	98.352874
823.000000	98.373275
822.000000	98.385833
821.000000	98.380420
820.000000	98.354052
819.000000	98.318037
818.000000	98.282475
817.000000	98.243709
816.000000	98.190832
815.000000	98.113582
814.000000	97.998317
813.000000	97.826674
812.000000	97.587216
811.000000	97.282908
810.000000	96.920829
809.000000	96.500310
808.000000	96.016948
807.000000	95.471829
806.000000	94.871509
805.000000	94.228060
804.000000	93.567497
803.000000	92.929979
802.000000	92.352743
801.000000	91.859661
800.000000	91.471090
799.000000	91.208038
798.000000	91.076107
797.000000	91.057585
796.000000	91.127635
795.000000	91.265692
794.000000	91.445083
793.000000	91.628667
792.000000	91.787470
791.000000	91.914301
790.000000	92.011118
789.000000	92.072740
788.000000	92.090000
787.000000	92.057875
786.000000	91.971386
785.000000	91.823650
784.000000	91.619553
783.000000	91.384949
782.000000	91.152473
781.000000	90.943941
780.000000	90.774659
779.000000	90.665710
778.000000	90.638772
777.000000	90.701680
776.000000	90.846001
775.000000	91.053482
774.000000	91.299098
773.000000	91.554709
772.000000	91.798721
771.000000	92.022379
770.000000	92.224919
769.000000	92.405255
768.000000	92.559331
767.000000	92.681704
766.000000	92.768754
765.000000	92.824554
764.000000	92.864438
763.000000	92.908104
762.000000	92.967409
761.000000	93.043782
760.000000	93.135593
759.000000	93.241117
758.000000	93.354736
757.000000	93.468390
756.000000	93.578799
755.000000	93.687813
754.000000	93.795608
753.000000	93.899406
752.000000	93.998194
751.000000	94.092195
750.000000	94.178938
749.000000	94.257751
748.000000	94.337914
747.000000	94.434076
746.000000	94.552289
745.000000	94.686962
744.000000	94.830783
743.000000	94.979825
742.000000	95.130183
741.000000	95.279829
740.000000	95.434566
739.000000	95.602307
738.000000	95.779395
737.000000	95.951072
736.000000	96.107123
735.000000	96.248532
734.000000	96.377778
733.000000	96.491654
732.000000	96.585964
731.000000	96.659495
730.000000	96.711524
729.000000	96.743698
728.000000	96.767009
727.000000	96.798512
726.000000	96.846569
725.000000	96.905002
724.000000	96.964868
723.000000	97.026174
722.000000	97.095318
721.000000	97.176689
720.000000	97.269607
719.000000	97.368798
718.000000	97.465863
717.000000	97.554597
716.000000	97.636126
715.000000	97.715058
714.000000	97.790563
713.000000	97.855887
712.000000	97.906671
711.000000	97.944551
710.000000	97.972878
709.000000	97.994764
708.000000	98.014177
707.000000	98.031039
706.000000	98.035005
705.000000	98.011755
704.000000	97.956123
703.000000	97.870467
702.000000	97.748112
701.000000	97.568065
700.000000	97.312044
699.000000	96.983936
698.000000	96.614915
697.000000	96.258061
696.000000	95.975934
695.000000	95.817584
694.000000	95.796483
693.000000	95.889970
692.000000	96.058225
691.000000	96.261566
690.000000	96.466895
689.000000	96.652101
688.000000	96.811415
687.000000	96.951204
686.000000	97.076652
685.000000	97.186946
684.000000	97.282360
683.000000	97.367674
682.000000	97.447955
681.000000	97.526969
680.000000	97.607618
679.000000	97.686079
678.000000	97.749287
677.000000	97.789530
676.000000	97.819624
675.000000	97.863030
674.000000	97.927298
673.000000	97.999370
672.000000	98.067325
671.000000	98.135467
670.000000	98.215885
669.000000	98.314446
668.000000	98.417921
667.000000	98.495304
666.000000	98.539591
665.000000	98.575496
664.000000	98.621203
663.000000	98.681923
662.000000	98.747666
661.000000	98.800503
660.000000	98.831678
659.000000	98.842826
658.000000	98.832417
657.000000	98.795624
656.000000	98.740538
655.000000	98.692988
654.000000	98.673123
653.000000	98.675365
652.000000	98.680898
651.000000	98.678639
650.000000	98.668085
649.000000	98.657194
648.000000	98.665215
647.000000	98.711285
646.000000	98.788877
645.000000	98.867556
644.000000	98.932829
643.000000	99.004300
642.000000	99.102138
641.000000	99.215536
640.000000	99.318323
639.000000	99.400218
638.000000	99.468277
637.000000	99.527631
636.000000	99.576019
635.000000	99.612672
634.000000	99.642568
633.000000	99.676431
632.000000	99.731402
631.000000	99.820520
630.000000	99.932980
629.000000	100.038344
628.000000	100.119460
627.000000	100.188439
626.000000	100.261054
625.000000	100.325660
624.000000	100.354727
623.000000	100.343295
622.000000	100.321336
621.000000	100.325253
620.000000	100.366263
619.000000	100.428614
618.000000	100.490431
617.000000	100.544509
616.000000	100.597186
615.000000	100.646535
614.000000	100.672041
613.000000	100.655690
612.000000	100.606462
611.000000	100.555314
610.000000	100.525629
609.000000	100.515463
608.000000	100.507658
607.000000	100.482424
606.000000	100.428784
605.000000	100.367396
604.000000	100.355484
603.000000	100.434950
602.000000	100.565306
601.000000	100.642710
600.000000	100.602395
599.000000	100.477277
598.000000	100.346795
597.000000	100.246346
596.000000	100.160424
595.000000	100.086560
594.000000	100.058591
593.000000	100.102303
592.000000	100.197497
591.000000	100.290691
590.000000	100.342202
589.000000	100.360394
588.000000	100.382222
587.000000	100.420183
586.000000	100.437635
585.000000	100.393469
584.000000	100.302787
583.000000	100.228038
582.000000	100.212384
581.000000	100.252615
580.000000	100.339373
579.000000	100.468536
578.000000	100.601789
577.000000	100.676110
576.000000	100.670857
575.000000	100.627043
574.000000	100.587338
573.000000	100.556756
572.000000	100.536898
571.000000	100.533795
570.000000	100.511551
569.000000	100.407432
568.000000	100.221146
567.000000	100.032504
566.000000	99.899366
565.000000	99.796613
564.000000	99.697849
563.000000	99.633541
562.000000	99.612834
561.000000	99.567772
560.000000	99.442883
559.000000	99.270018
558.000000	99.098952
557.000000	98.909101
556.000000	98.662863
555.000000	98.399297
554.000000	98.199213
553.000000	98.086639
552.000000	98.038228
551.000000	98.037929
550.000000	98.062729
