PE IR       SUBTECH     SPECTRUM    ASCII       PEDS        4.00        
   -1
BH1 8-6 23 0_1.asc
24/05/14
12:57:10.00
24/05/14
12:58:18.00
Administrator
?品 041 用? Administrator 日期 Tuesday, May 14 2024
550.000000
#HDR
-1
-1
#GR
cm-1
%T
1.0
0.0
4000.000000
-1.000000
3451
8
100.232029
91.516056
#DATA
4000.000000	100.115633
3999.000000	100.112446
3998.000000	100.109366
3997.000000	100.105998
3996.000000	100.101716
3995.000000	100.096897
3994.000000	100.093189
3993.000000	100.092187
3992.000000	100.093882
3991.000000	100.096456
3990.000000	100.097831
3989.000000	100.097444
3988.000000	100.096293
3987.000000	100.095557
3986.000000	100.095503
3985.000000	100.095565
3984.000000	100.095106
3983.000000	100.094037
3982.000000	100.092899
3981.000000	100.092558
3980.000000	100.093670
3979.000000	100.096186
3978.000000	100.099196
3977.000000	100.101351
3976.000000	100.101581
3975.000000	100.099595
3974.000000	100.095896
3973.000000	100.091420
3972.000000	100.087196
3971.000000	100.084084
3970.000000	100.082586
3969.000000	100.082735
3968.000000	100.084034
3967.000000	100.085703
3966.000000	100.087248
3965.000000	100.088754
3964.000000	100.090563
3963.000000	100.092637
3962.000000	100.094336
3961.000000	100.094963
3960.000000	100.094437
3959.000000	100.093304
3958.000000	100.092131
3957.000000	100.091033
3956.000000	100.089876
3955.000000	100.088799
3954.000000	100.088291
3953.000000	100.088655
3952.000000	100.089509
3951.000000	100.089974
3950.000000	100.089467
3949.000000	100.088251
3948.000000	100.087185
3947.000000	100.086930
3946.000000	100.087484
3945.000000	100.088368
3944.000000	100.089099
3943.000000	100.089481
3942.000000	100.089591
3941.000000	100.089635
3940.000000	100.089828
3939.000000	100.090243
3938.000000	100.090671
3937.000000	100.090744
3936.000000	100.090283
3935.000000	100.089565
3934.000000	100.089255
3933.000000	100.089947
3932.000000	100.091665
3931.000000	100.093651
3930.000000	100.094858
3929.000000	100.094805
3928.000000	100.093833
3927.000000	100.092740
3926.000000	100.092084
3925.000000	100.091758
3924.000000	100.091218
3923.000000	100.090106
3922.000000	100.088671
3921.000000	100.087570
3920.000000	100.087271
3919.000000	100.087772
3918.000000	100.088780
3917.000000	100.089997
3916.000000	100.091155
3915.000000	100.091902
3914.000000	100.091872
3913.000000	100.090895
3912.000000	100.089175
3911.000000	100.087289
3910.000000	100.085963
3909.000000	100.085743
3908.000000	100.086810
3907.000000	100.088928
3906.000000	100.091471
3905.000000	100.093633
3904.000000	100.094786
3903.000000	100.094735
3902.000000	100.093701
3901.000000	100.092123
3900.000000	100.090400
3899.000000	100.088816
3898.000000	100.087619
3897.000000	100.087019
3896.000000	100.086992
3895.000000	100.087076
3894.000000	100.086586
3893.000000	100.085374
3892.000000	100.084394
3891.000000	100.084963
3890.000000	100.087280
3889.000000	100.090316
3888.000000	100.092752
3887.000000	100.093786
3886.000000	100.093848
3885.000000	100.094380
3884.000000	100.096021
3883.000000	100.097745
3882.000000	100.097906
3881.000000	100.095787
3880.000000	100.092514
3879.000000	100.090121
3878.000000	100.089726
3877.000000	100.090986
3876.000000	100.092632
3875.000000	100.093920
3874.000000	100.095513
3873.000000	100.098378
3872.000000	100.102317
3871.000000	100.105776
3870.000000	100.106852
3869.000000	100.104547
3868.000000	100.099368
3867.000000	100.093133
3866.000000	100.087621
3865.000000	100.083459
3864.000000	100.080532
3863.000000	100.078644
3862.000000	100.077767
3861.000000	100.078060
3860.000000	100.079349
3859.000000	100.081136
3858.000000	100.083280
3857.000000	100.086366
3856.000000	100.090892
3855.000000	100.096184
3854.000000	100.101079
3853.000000	100.105216
3852.000000	100.107434
3851.000000	100.106489
3850.000000	100.103441
3849.000000	100.099644
3848.000000	100.095317
3847.000000	100.090372
3846.000000	100.085411
3845.000000	100.081816
3844.000000	100.080601
3843.000000	100.081333
3842.000000	100.082517
3841.000000	100.083172
3840.000000	100.083710
3839.000000	100.085271
3838.000000	100.088003
3837.000000	100.090300
3836.000000	100.090229
3835.000000	100.087206
3834.000000	100.081967
3833.000000	100.075838
3832.000000	100.070449
3831.000000	100.067469
3830.000000	100.067786
3829.000000	100.070868
3828.000000	100.075073
3827.000000	100.078932
3826.000000	100.082178
3825.000000	100.085368
3824.000000	100.088642
3823.000000	100.091034
3822.000000	100.091226
3821.000000	100.089238
3820.000000	100.086040
3819.000000	100.082381
3818.000000	100.079580
3817.000000	100.079249
3816.000000	100.082114
3815.000000	100.087138
3814.000000	100.091878
3813.000000	100.094568
3812.000000	100.095057
3811.000000	100.094212
3810.000000	100.093226
3809.000000	100.092939
3808.000000	100.093241
3807.000000	100.093157
3806.000000	100.091804
3805.000000	100.089321
3804.000000	100.086907
3803.000000	100.085605
3802.000000	100.085158
3801.000000	100.084277
3800.000000	100.081569
3799.000000	100.077052
3798.000000	100.072450
3797.000000	100.069368
3796.000000	100.068078
3795.000000	100.067655
3794.000000	100.067034
3793.000000	100.065873
3792.000000	100.064562
3791.000000	100.063836
3790.000000	100.064276
3789.000000	100.065983
3788.000000	100.068679
3787.000000	100.071806
3786.000000	100.074576
3785.000000	100.076014
3784.000000	100.075258
3783.000000	100.072137
3782.000000	100.067361
3781.000000	100.062231
3780.000000	100.058311
3779.000000	100.056914
3778.000000	100.058167
3777.000000	100.060879
3776.000000	100.063501
3775.000000	100.065057
3774.000000	100.065404
3773.000000	100.064834
3772.000000	100.063462
3771.000000	100.061265
3770.000000	100.058615
3769.000000	100.056229
3768.000000	100.054531
3767.000000	100.053542
3766.000000	100.053209
3765.000000	100.053563
3764.000000	100.054623
3763.000000	100.056334
3762.000000	100.058607
3761.000000	100.061204
3760.000000	100.063738
3759.000000	100.065882
3758.000000	100.067363
3757.000000	100.068033
3756.000000	100.068005
3755.000000	100.067509
3754.000000	100.066642
3753.000000	100.065366
3752.000000	100.064034
3751.000000	100.063699
3750.000000	100.065180
3749.000000	100.068463
3748.000000	100.073520
3747.000000	100.079666
3746.000000	100.083988
3745.000000	100.082860
3744.000000	100.076156
3743.000000	100.067629
3742.000000	100.060679
3741.000000	100.056418
3740.000000	100.054724
3739.000000	100.054985
3738.000000	100.056063
3737.000000	100.056687
3736.000000	100.056266
3735.000000	100.055061
3734.000000	100.053607
3733.000000	100.052580
3732.000000	100.052643
3731.000000	100.053518
3730.000000	100.053893
3729.000000	100.052389
3728.000000	100.048541
3727.000000	100.043166
3726.000000	100.037821
3725.000000	100.033503
3724.000000	100.030075
3723.000000	100.027072
3722.000000	100.024539
3721.000000	100.022747
3720.000000	100.021333
3719.000000	100.019178
3718.000000	100.015312
3717.000000	100.009912
3716.000000	100.004317
3715.000000	100.000131
3714.000000	99.998252
3713.000000	99.998373
3712.000000	99.999105
3711.000000	99.998502
3710.000000	99.994906
3709.000000	99.988182
3708.000000	99.980103
3707.000000	99.972976
3706.000000	99.968145
3705.000000	99.965599
3704.000000	99.964215
3703.000000	99.962413
3702.000000	99.959298
3701.000000	99.955314
3700.000000	99.951487
3699.000000	99.948400
3698.000000	99.945903
3697.000000	99.943708
3696.000000	99.942184
3695.000000	99.942095
3694.000000	99.943395
3693.000000	99.944650
3692.000000	99.944016
3691.000000	99.940993
3690.000000	99.937104
3689.000000	99.934214
3688.000000	99.932212
3687.000000	99.929896
3686.000000	99.927251
3685.000000	99.925238
3684.000000	99.924377
3683.000000	99.923959
3682.000000	99.922511
3681.000000	99.919273
3680.000000	99.914970
3679.000000	99.911087
3678.000000	99.908743
3677.000000	99.908009
3676.000000	99.908051
3675.000000	99.907145
3674.000000	99.902871
3673.000000	99.894960
3672.000000	99.885645
3671.000000	99.877084
3670.000000	99.871181
3669.000000	99.868327
3668.000000	99.865887
3667.000000	99.861415
3666.000000	99.854716
3665.000000	99.846715
3664.000000	99.838670
3663.000000	99.831653
3662.000000	99.826157
3661.000000	99.822175
3660.000000	99.819159
3659.000000	99.815735
3658.000000	99.810257
3657.000000	99.802637
3656.000000	99.795428
3655.000000	99.791393
3654.000000	99.790948
3653.000000	99.792458
3652.000000	99.793367
3651.000000	99.791637
3650.000000	99.787749
3649.000000	99.784311
3648.000000	99.781780
3647.000000	99.777930
3646.000000	99.771578
3645.000000	99.763287
3644.000000	99.753957
3643.000000	99.744369
3642.000000	99.735496
3641.000000	99.728548
3640.000000	99.724380
3639.000000	99.722605
3638.000000	99.721185
3637.000000	99.717478
3636.000000	99.710642
3635.000000	99.703031
3634.000000	99.698393
3633.000000	99.698469
3632.000000	99.701756
3631.000000	99.705065
3630.000000	99.705839
3629.000000	99.703782
3628.000000	99.699281
3627.000000	99.691628
3626.000000	99.682341
3625.000000	99.675215
3624.000000	99.672910
3623.000000	99.675885
3622.000000	99.682644
3621.000000	99.690297
3620.000000	99.695788
3619.000000	99.697651
3618.000000	99.696665
3617.000000	99.694953
3616.000000	99.694674
3615.000000	99.696878
3614.000000	99.701571
3613.000000	99.708201
3612.000000	99.715299
3611.000000	99.720470
3610.000000	99.721766
3609.000000	99.719541
3608.000000	99.716831
3607.000000	99.716454
3606.000000	99.718107
3605.000000	99.719265
3604.000000	99.717713
3603.000000	99.713110
3602.000000	99.707173
3601.000000	99.702528
3600.000000	99.700949
3599.000000	99.702565
3598.000000	99.706357
3597.000000	99.711037
3596.000000	99.715782
3595.000000	99.720495
3594.000000	99.725303
3593.000000	99.729826
3592.000000	99.733457
3591.000000	99.736122
3590.000000	99.738282
3589.000000	99.740130
3588.000000	99.740815
3587.000000	99.738527
3586.000000	99.732119
3585.000000	99.723194
3584.000000	99.715231
3583.000000	99.710277
3582.000000	99.707919
3581.000000	99.706935
3580.000000	99.706817
3579.000000	99.707773
3578.000000	99.709712
3577.000000	99.711671
3576.000000	99.712561
3575.000000	99.712307
3574.000000	99.711908
3573.000000	99.712271
3572.000000	99.713148
3571.000000	99.713406
3570.000000	99.712302
3569.000000	99.710625
3568.000000	99.710516
3567.000000	99.713254
3566.000000	99.717020
3565.000000	99.718522
3564.000000	99.716587
3563.000000	99.712485
3562.000000	99.708159
3561.000000	99.704822
3560.000000	99.702512
3559.000000	99.700572
3558.000000	99.698530
3557.000000	99.696545
3556.000000	99.695141
3555.000000	99.694709
3554.000000	99.695201
3553.000000	99.696047
3552.000000	99.696368
3551.000000	99.695607
3550.000000	99.694091
3549.000000	99.692780
3548.000000	99.692379
3547.000000	99.692741
3546.000000	99.693036
3545.000000	99.692449
3544.000000	99.690824
3543.000000	99.688761
3542.000000	99.687093
3541.000000	99.686128
3540.000000	99.685260
3539.000000	99.683360
3538.000000	99.679835
3537.000000	99.675535
3536.000000	99.672429
3535.000000	99.671969
3534.000000	99.673954
3533.000000	99.676757
3532.000000	99.678638
3531.000000	99.678922
3530.000000	99.678164
3529.000000	99.677513
3528.000000	99.677897
3527.000000	99.679516
3526.000000	99.681790
3525.000000	99.683665
3524.000000	99.684193
3523.000000	99.683162
3522.000000	99.681128
3521.000000	99.678834
3520.000000	99.676604
3519.000000	99.674463
3518.000000	99.672789
3517.000000	99.672394
3516.000000	99.673724
3515.000000	99.676236
3514.000000	99.678815
3513.000000	99.680682
3512.000000	99.681473
3511.000000	99.680584
3510.000000	99.677200
3509.000000	99.671383
3508.000000	99.664824
3507.000000	99.659882
3506.000000	99.657817
3505.000000	99.658217
3504.000000	99.659718
3503.000000	99.661030
3502.000000	99.661353
3501.000000	99.660451
3500.000000	99.658810
3499.000000	99.657542
3498.000000	99.657707
3497.000000	99.659590
3496.000000	99.662552
3495.000000	99.665507
3494.000000	99.667593
3493.000000	99.668580
3492.000000	99.668873
3491.000000	99.669155
3490.000000	99.669699
3489.000000	99.670044
3488.000000	99.669565
3487.000000	99.668315
3486.000000	99.667009
3485.000000	99.666103
3484.000000	99.665291
3483.000000	99.664165
3482.000000	99.663040
3481.000000	99.662595
3480.000000	99.662806
3479.000000	99.662780
3478.000000	99.661775
3477.000000	99.659944
3476.000000	99.657889
3475.000000	99.655848
3474.000000	99.653725
3473.000000	99.651816
3472.000000	99.650907
3471.000000	99.651436
3470.000000	99.652829
3469.000000	99.653933
3468.000000	99.654025
3467.000000	99.653172
3466.000000	99.651667
3465.000000	99.649479
3464.000000	99.646503
3463.000000	99.643157
3462.000000	99.640308
3461.000000	99.638529
3460.000000	99.637690
3459.000000	99.637287
3458.000000	99.637009
3457.000000	99.636837
3456.000000	99.636702
3455.000000	99.636373
3454.000000	99.635757
3453.000000	99.635032
3452.000000	99.634242
3451.000000	99.632956
3450.000000	99.630728
3449.000000	99.627957
3448.000000	99.625983
3447.000000	99.625883
3446.000000	99.627381
3445.000000	99.628950
3444.000000	99.629234
3443.000000	99.628148
3442.000000	99.626577
3441.000000	99.625311
3440.000000	99.624340
3439.000000	99.623233
3438.000000	99.621875
3437.000000	99.620526
3436.000000	99.619255
3435.000000	99.617705
3434.000000	99.615630
3433.000000	99.613444
3432.000000	99.611906
3431.000000	99.611300
3430.000000	99.611300
3429.000000	99.611675
3428.000000	99.612701
3427.000000	99.614615
3426.000000	99.616942
3425.000000	99.618753
3424.000000	99.619573
3423.000000	99.619743
3422.000000	99.619821
3421.000000	99.619859
3420.000000	99.619442
3419.000000	99.618287
3418.000000	99.616582
3417.000000	99.614745
3416.000000	99.613132
3415.000000	99.612074
3414.000000	99.611920
3413.000000	99.612716
3412.000000	99.613841
3411.000000	99.614251
3410.000000	99.613390
3409.000000	99.611826
3408.000000	99.610817
3407.000000	99.611143
3406.000000	99.612566
3405.000000	99.614442
3404.000000	99.616560
3403.000000	99.619148
3402.000000	99.622118
3401.000000	99.624608
3400.000000	99.625589
3399.000000	99.624757
3398.000000	99.622752
3397.000000	99.620690
3396.000000	99.619468
3395.000000	99.619321
3394.000000	99.619773
3393.000000	99.619964
3392.000000	99.619313
3391.000000	99.618030
3390.000000	99.616938
3389.000000	99.616700
3388.000000	99.617241
3387.000000	99.617929
3386.000000	99.618232
3385.000000	99.618189
3384.000000	99.618290
3383.000000	99.618936
3382.000000	99.619993
3381.000000	99.620801
3380.000000	99.620653
3379.000000	99.619375
3378.000000	99.617565
3377.000000	99.616234
3376.000000	99.616042
3375.000000	99.616918
3374.000000	99.618341
3373.000000	99.619883
3372.000000	99.621420
3371.000000	99.622935
3370.000000	99.624357
3369.000000	99.625577
3368.000000	99.626408
3367.000000	99.626528
3366.000000	99.625679
3365.000000	99.624036
3364.000000	99.622312
3363.000000	99.621281
3362.000000	99.621257
3361.000000	99.622091
3360.000000	99.623491
3359.000000	99.625154
3358.000000	99.626666
3357.000000	99.627609
3356.000000	99.627899
3355.000000	99.627943
3354.000000	99.628324
3353.000000	99.629270
3352.000000	99.630437
3351.000000	99.631159
3350.000000	99.630945
3349.000000	99.629886
3348.000000	99.628725
3347.000000	99.628406
3346.000000	99.629312
3345.000000	99.630962
3344.000000	99.632458
3343.000000	99.633339
3342.000000	99.633974
3341.000000	99.635096
3340.000000	99.637058
3339.000000	99.639518
3338.000000	99.641735
3337.000000	99.643136
3336.000000	99.643662
3335.000000	99.643717
3334.000000	99.643838
3333.000000	99.644313
3332.000000	99.645009
3331.000000	99.645559
3330.000000	99.645809
3329.000000	99.646034
3328.000000	99.646610
3327.000000	99.647463
3326.000000	99.648063
3325.000000	99.648063
3324.000000	99.647763
3323.000000	99.647819
3322.000000	99.648495
3321.000000	99.649416
3320.000000	99.650031
3319.000000	99.650208
3318.000000	99.650291
3317.000000	99.650696
3316.000000	99.651521
3315.000000	99.652568
3314.000000	99.653576
3313.000000	99.654442
3312.000000	99.655224
3311.000000	99.656000
3310.000000	99.656772
3309.000000	99.657462
3308.000000	99.658008
3307.000000	99.658447
3306.000000	99.658914
3305.000000	99.659511
3304.000000	99.660224
3303.000000	99.660967
3302.000000	99.661652
3301.000000	99.662254
3300.000000	99.662810
3299.000000	99.663367
3298.000000	99.663929
3297.000000	99.664470
3296.000000	99.664986
3295.000000	99.665497
3294.000000	99.666033
3293.000000	99.666607
3292.000000	99.667220
3291.000000	99.667862
3290.000000	99.668508
3289.000000	99.669130
3288.000000	99.669715
3287.000000	99.670285
3286.000000	99.670892
3285.000000	99.671574
3284.000000	99.672318
3283.000000	99.673068
3282.000000	99.673772
3281.000000	99.674428
3280.000000	99.675091
3279.000000	99.675828
3278.000000	99.676659
3277.000000	99.677510
3276.000000	99.678255
3275.000000	99.678819
3274.000000	99.679219
3273.000000	99.679528
3272.000000	99.679812
3271.000000	99.680120
3270.000000	99.680514
3269.000000	99.681076
3268.000000	99.681847
3267.000000	99.682766
3266.000000	99.683687
3265.000000	99.684499
3264.000000	99.685207
3263.000000	99.685869
3262.000000	99.686492
3261.000000	99.687039
3260.000000	99.687529
3259.000000	99.688042
3258.000000	99.688639
3257.000000	99.689298
3256.000000	99.689965
3255.000000	99.690606
3254.000000	99.691233
3253.000000	99.691865
3252.000000	99.692507
3251.000000	99.693152
3250.000000	99.693792
3249.000000	99.694425
3248.000000	99.695052
3247.000000	99.695669
3246.000000	99.696275
3245.000000	99.696865
3244.000000	99.697436
3243.000000	99.697992
3242.000000	99.698542
3241.000000	99.699099
3240.000000	99.699671
3239.000000	99.700256
3238.000000	99.700845
3237.000000	99.701428
3236.000000	99.702002
3235.000000	99.702574
3234.000000	99.703157
3233.000000	99.703762
3232.000000	99.704393
3231.000000	99.705045
3230.000000	99.705708
3229.000000	99.706371
3228.000000	99.707026
3227.000000	99.707670
3226.000000	99.708298
3225.000000	99.708909
3224.000000	99.709502
3223.000000	99.710077
3222.000000	99.710636
3221.000000	99.711193
3220.000000	99.711776
3219.000000	99.712401
3218.000000	99.713060
3217.000000	99.713720
3216.000000	99.714311
3215.000000	99.714768
3214.000000	99.715122
3213.000000	99.715527
3212.000000	99.716106
3211.000000	99.716799
3210.000000	99.717410
3209.000000	99.717830
3208.000000	99.718102
3207.000000	99.718245
3206.000000	99.718153
3205.000000	99.717793
3204.000000	99.717459
3203.000000	99.717699
3202.000000	99.718903
3201.000000	99.720897
3200.000000	99.722937
3199.000000	99.724296
3198.000000	99.724909
3197.000000	99.725407
3196.000000	99.726496
3195.000000	99.728288
3194.000000	99.730327
3193.000000	99.732057
3192.000000	99.733054
3191.000000	99.732968
3190.000000	99.731769
3189.000000	99.730173
3188.000000	99.729334
3187.000000	99.729758
3186.000000	99.730796
3185.000000	99.731436
3184.000000	99.731402
3183.000000	99.731144
3182.000000	99.731001
3181.000000	99.730931
3180.000000	99.731041
3179.000000	99.731737
3178.000000	99.733110
3177.000000	99.734582
3176.000000	99.735543
3175.000000	99.735978
3174.000000	99.736226
3173.000000	99.736470
3172.000000	99.736750
3171.000000	99.737197
3170.000000	99.737939
3169.000000	99.739007
3168.000000	99.740647
3167.000000	99.743451
3166.000000	99.747713
3165.000000	99.752662
3164.000000	99.756717
3163.000000	99.758715
3162.000000	99.758585
3161.000000	99.757043
3160.000000	99.755053
3159.000000	99.753513
3158.000000	99.753050
3157.000000	99.753790
3156.000000	99.755362
3155.000000	99.757199
3154.000000	99.758842
3153.000000	99.759999
3152.000000	99.760564
3151.000000	99.760714
3150.000000	99.760877
3149.000000	99.761473
3148.000000	99.762623
3147.000000	99.764045
3146.000000	99.765174
3145.000000	99.765567
3144.000000	99.765356
3143.000000	99.765215
3142.000000	99.765672
3141.000000	99.766610
3140.000000	99.767708
3139.000000	99.769182
3138.000000	99.771541
3137.000000	99.774545
3136.000000	99.776965
3135.000000	99.777838
3134.000000	99.777639
3133.000000	99.777886
3132.000000	99.779657
3131.000000	99.782817
3130.000000	99.786504
3129.000000	99.789891
3128.000000	99.792396
3127.000000	99.793552
3126.000000	99.793121
3125.000000	99.791342
3124.000000	99.788890
3123.000000	99.786575
3122.000000	99.785019
3121.000000	99.784508
3120.000000	99.785023
3119.000000	99.786316
3118.000000	99.788012
3117.000000	99.789618
3116.000000	99.790550
3115.000000	99.790399
3114.000000	99.789373
3113.000000	99.788419
3112.000000	99.788622
3111.000000	99.790296
3110.000000	99.792685
3109.000000	99.794629
3108.000000	99.795576
3107.000000	99.795865
3106.000000	99.796159
3105.000000	99.796904
3104.000000	99.798301
3103.000000	99.800376
3102.000000	99.802736
3101.000000	99.804523
3100.000000	99.805089
3099.000000	99.804734
3098.000000	99.804474
3097.000000	99.804908
3096.000000	99.805506
3095.000000	99.805173
3094.000000	99.803381
3093.000000	99.800652
3092.000000	99.798135
3091.000000	99.796705
3090.000000	99.796479
3089.000000	99.797094
3088.000000	99.798300
3087.000000	99.800158
3086.000000	99.802540
3085.000000	99.804700
3084.000000	99.805731
3083.000000	99.805474
3082.000000	99.804768
3081.000000	99.804660
3080.000000	99.805409
3079.000000	99.806385
3078.000000	99.806792
3077.000000	99.806387
3076.000000	99.805656
3075.000000	99.805465
3074.000000	99.806463
3073.000000	99.808582
3072.000000	99.811041
3071.000000	99.813007
3070.000000	99.814326
3069.000000	99.815538
3068.000000	99.817148
3067.000000	99.818870
3066.000000	99.819747
3065.000000	99.819204
3064.000000	99.817921
3063.000000	99.817388
3062.000000	99.818329
3061.000000	99.819797
3060.000000	99.820161
3059.000000	99.818886
3058.000000	99.816944
3057.000000	99.815539
3056.000000	99.814903
3055.000000	99.814700
3054.000000	99.815048
3053.000000	99.816555
3052.000000	99.819416
3051.000000	99.822893
3050.000000	99.825905
3049.000000	99.827894
3048.000000	99.829043
3047.000000	99.829912
3046.000000	99.830896
3045.000000	99.831982
3044.000000	99.832869
3043.000000	99.833223
3042.000000	99.832778
3041.000000	99.831441
3040.000000	99.829591
3039.000000	99.828156
3038.000000	99.827909
3037.000000	99.828625
3036.000000	99.829339
3035.000000	99.829551
3034.000000	99.829753
3033.000000	99.830531
3032.000000	99.831601
3031.000000	99.832120
3030.000000	99.831762
3029.000000	99.831085
3028.000000	99.830964
3027.000000	99.831949
3026.000000	99.834016
3025.000000	99.836575
3024.000000	99.838785
3023.000000	99.840254
3022.000000	99.841387
3021.000000	99.842812
3020.000000	99.844562
3019.000000	99.846117
3018.000000	99.847243
3017.000000	99.848428
3016.000000	99.850311
3015.000000	99.852853
3014.000000	99.855237
3013.000000	99.856568
3012.000000	99.856629
3011.000000	99.856071
3010.000000	99.856016
3009.000000	99.857156
3008.000000	99.859259
3007.000000	99.861457
3006.000000	99.863129
3005.000000	99.864497
3004.000000	99.866265
3003.000000	99.868800
3002.000000	99.871707
3001.000000	99.874134
3000.000000	99.875480
2999.000000	99.875768
2998.000000	99.875580
2997.000000	99.875671
2996.000000	99.876520
2995.000000	99.878142
2994.000000	99.880135
2993.000000	99.881934
2992.000000	99.883246
2991.000000	99.884330
2990.000000	99.885747
2989.000000	99.887725
2988.000000	99.889889
2987.000000	99.891796
2986.000000	99.893568
2985.000000	99.895659
2984.000000	99.898046
2983.000000	99.900061
2982.000000	99.901138
2981.000000	99.901427
2980.000000	99.901599
2979.000000	99.902361
2978.000000	99.904294
2977.000000	99.907665
2976.000000	99.912070
2975.000000	99.916610
2974.000000	99.920860
2973.000000	99.925289
2972.000000	99.930311
2971.000000	99.935229
2970.000000	99.938657
2969.000000	99.939844
2968.000000	99.939030
2967.000000	99.936832
2966.000000	99.934198
2965.000000	99.932947
2964.000000	99.935184
2963.000000	99.941324
2962.000000	99.949073
2961.000000	99.955220
2960.000000	99.958219
2959.000000	99.958559
2958.000000	99.957342
2957.000000	99.955412
2956.000000	99.953596
2955.000000	99.952741
2954.000000	99.953136
2953.000000	99.954345
2952.000000	99.955850
2951.000000	99.957676
2950.000000	99.960240
2949.000000	99.963767
2948.000000	99.968082
2947.000000	99.972921
2946.000000	99.978181
2945.000000	99.983643
2944.000000	99.988535
2943.000000	99.991886
2942.000000	99.993640
2941.000000	99.995135
2940.000000	99.997986
2939.000000	100.002723
2938.000000	100.009057
2937.000000	100.017069
2936.000000	100.026851
2935.000000	100.036794
2934.000000	100.043892
2933.000000	100.047106
2932.000000	100.049623
2931.000000	100.056130
2930.000000	100.067917
2929.000000	100.081938
2928.000000	100.094695
2927.000000	100.105385
2926.000000	100.114673
2925.000000	100.122114
2924.000000	100.126231
2923.000000	100.126300
2922.000000	100.122405
2921.000000	100.114107
2920.000000	100.100774
2919.000000	100.083593
2918.000000	100.066214
2917.000000	100.052572
2916.000000	100.044034
2915.000000	100.038722
2914.000000	100.033233
2913.000000	100.025204
2912.000000	100.015133
2911.000000	100.006028
2910.000000	100.000653
2909.000000	99.998720
2908.000000	99.997253
2907.000000	99.993998
2906.000000	99.989837
2905.000000	99.987202
2904.000000	99.986674
2903.000000	99.986223
2902.000000	99.983817
2901.000000	99.979863
2900.000000	99.976375
2899.000000	99.974240
2898.000000	99.972440
2897.000000	99.969908
2896.000000	99.967497
2895.000000	99.967200
2894.000000	99.969466
2893.000000	99.972009
2892.000000	99.971722
2891.000000	99.967444
2890.000000	99.960498
2889.000000	99.953148
2888.000000	99.947313
2887.000000	99.944148
2886.000000	99.943329
2885.000000	99.942420
2884.000000	99.938525
2883.000000	99.931845
2882.000000	99.926667
2881.000000	99.927285
2880.000000	99.933356
2879.000000	99.940255
2878.000000	99.943941
2877.000000	99.944354
2876.000000	99.943785
2875.000000	99.943742
2874.000000	99.944397
2873.000000	99.945678
2872.000000	99.947199
2871.000000	99.947590
2870.000000	99.945597
2869.000000	99.942179
2868.000000	99.940306
2867.000000	99.942055
2866.000000	99.946641
2865.000000	99.951857
2864.000000	99.956845
2863.000000	99.962613
2862.000000	99.970053
2861.000000	99.978466
2860.000000	99.986474
2859.000000	99.993790
2858.000000	100.001305
2857.000000	100.009367
2856.000000	100.016573
2855.000000	100.020764
2854.000000	100.020973
2853.000000	100.017957
2852.000000	100.012947
2851.000000	100.006514
2850.000000	99.998976
2849.000000	99.991282
2848.000000	99.984599
2847.000000	99.978892
2846.000000	99.972578
2845.000000	99.964060
2844.000000	99.953541
2843.000000	99.943243
2842.000000	99.935924
2841.000000	99.933023
2840.000000	99.933677
2839.000000	99.935096
2838.000000	99.934245
2837.000000	99.929984
2836.000000	99.923972
2835.000000	99.919342
2834.000000	99.918137
2833.000000	99.919862
2832.000000	99.922324
2831.000000	99.923575
2830.000000	99.923025
2829.000000	99.921160
2828.000000	99.918876
2827.000000	99.917110
2826.000000	99.916500
2825.000000	99.916887
2824.000000	99.917315
2823.000000	99.916964
2822.000000	99.916033
2821.000000	99.915392
2820.000000	99.915498
2819.000000	99.916023
2818.000000	99.916465
2817.000000	99.916651
2816.000000	99.916647
2815.000000	99.916709
2814.000000	99.917533
2813.000000	99.919984
2812.000000	99.924074
2811.000000	99.928498
2810.000000	99.931643
2809.000000	99.933021
2808.000000	99.933339
2807.000000	99.933270
2806.000000	99.932544
2805.000000	99.930421
2804.000000	99.926845
2803.000000	99.922875
2802.000000	99.920046
2801.000000	99.919330
2800.000000	99.920469
2799.000000	99.922187
2798.000000	99.923178
2797.000000	99.923108
2796.000000	99.922756
2795.000000	99.923157
2794.000000	99.924525
2793.000000	99.925940
2792.000000	99.926077
2791.000000	99.924354
2790.000000	99.921556
2789.000000	99.919397
2788.000000	99.919347
2787.000000	99.921821
2786.000000	99.926292
2785.000000	99.931822
2784.000000	99.937335
2783.000000	99.941690
2782.000000	99.944086
2781.000000	99.944598
2780.000000	99.944080
2779.000000	99.943368
2778.000000	99.942567
2777.000000	99.941192
2776.000000	99.938929
2775.000000	99.936082
2774.000000	99.933398
2773.000000	99.931614
2772.000000	99.931076
2771.000000	99.931667
2770.000000	99.933018
2769.000000	99.934770
2768.000000	99.936590
2767.000000	99.938020
2766.000000	99.938573
2765.000000	99.938151
2764.000000	99.937351
2763.000000	99.937247
2762.000000	99.938661
2761.000000	99.941488
2760.000000	99.944542
2759.000000	99.946302
2758.000000	99.946103
2757.000000	99.944537
2756.000000	99.942761
2755.000000	99.941417
2754.000000	99.940409
2753.000000	99.939587
2752.000000	99.939149
2751.000000	99.939305
2750.000000	99.939931
2749.000000	99.940765
2748.000000	99.941699
2747.000000	99.942678
2746.000000	99.943508
2745.000000	99.943983
2744.000000	99.944094
2743.000000	99.943999
2742.000000	99.943929
2741.000000	99.944183
2740.000000	99.945001
2739.000000	99.946262
2738.000000	99.947392
2737.000000	99.947849
2736.000000	99.947650
2735.000000	99.947345
2734.000000	99.947504
2733.000000	99.948211
2732.000000	99.949193
2731.000000	99.950174
2730.000000	99.950970
2729.000000	99.951382
2728.000000	99.951277
2727.000000	99.950798
2726.000000	99.950319
2725.000000	99.950095
2724.000000	99.950064
2723.000000	99.950031
2722.000000	99.949948
2721.000000	99.949994
2720.000000	99.950428
2719.000000	99.951323
2718.000000	99.952422
2717.000000	99.953295
2716.000000	99.953702
2715.000000	99.953748
2714.000000	99.953700
2713.000000	99.953738
2712.000000	99.953946
2711.000000	99.954394
2710.000000	99.955096
2709.000000	99.955949
2708.000000	99.956824
2707.000000	99.957681
2706.000000	99.958506
2705.000000	99.959193
2704.000000	99.959668
2703.000000	99.960041
2702.000000	99.960433
2701.000000	99.960703
2700.000000	99.960538
2699.000000	99.959790
2698.000000	99.958622
2697.000000	99.957467
2696.000000	99.956894
2695.000000	99.957408
2694.000000	99.959011
2693.000000	99.960852
2692.000000	99.961794
2691.000000	99.961403
2690.000000	99.960240
2689.000000	99.959190
2688.000000	99.958713
2687.000000	99.958821
2686.000000	99.959375
2685.000000	99.960130
2684.000000	99.960786
2683.000000	99.961337
2682.000000	99.962155
2681.000000	99.963459
2680.000000	99.964845
2679.000000	99.965583
2678.000000	99.965304
2677.000000	99.964310
2676.000000	99.963432
2675.000000	99.963530
2674.000000	99.964770
2673.000000	99.966209
2672.000000	99.966437
2671.000000	99.964850
2670.000000	99.962245
2669.000000	99.960100
2668.000000	99.959390
2667.000000	99.960074
2666.000000	99.961326
2665.000000	99.962276
2664.000000	99.962851
2663.000000	99.963943
2662.000000	99.966470
2661.000000	99.970305
2660.000000	99.974445
2659.000000	99.978106
2658.000000	99.981050
2657.000000	99.982792
2656.000000	99.982408
2655.000000	99.979607
2654.000000	99.975432
2653.000000	99.971397
2652.000000	99.968244
2651.000000	99.966018
2650.000000	99.964827
2649.000000	99.964832
2648.000000	99.965815
2647.000000	99.967497
2646.000000	99.970172
2645.000000	99.974315
2644.000000	99.979395
2643.000000	99.983563
2642.000000	99.984892
2641.000000	99.982724
2640.000000	99.977937
2639.000000	99.972481
2638.000000	99.968408
2637.000000	99.966736
2636.000000	99.966959
2635.000000	99.967620
2634.000000	99.967753
2633.000000	99.967829
2632.000000	99.969077
2631.000000	99.971985
2630.000000	99.975582
2629.000000	99.978092
2628.000000	99.978398
2627.000000	99.976826
2626.000000	99.974694
2625.000000	99.973160
2624.000000	99.972480
2623.000000	99.972316
2622.000000	99.972372
2621.000000	99.972572
2620.000000	99.972841
2619.000000	99.973032
2618.000000	99.973049
2617.000000	99.972827
2616.000000	99.972216
2615.000000	99.971118
2614.000000	99.969752
2613.000000	99.968625
2612.000000	99.968153
2611.000000	99.968368
2610.000000	99.968942
2609.000000	99.969389
2608.000000	99.969342
2607.000000	99.968837
2606.000000	99.968346
2605.000000	99.968362
2604.000000	99.968897
2603.000000	99.969548
2602.000000	99.970078
2601.000000	99.970690
2600.000000	99.971562
2599.000000	99.972362
2598.000000	99.972511
2597.000000	99.971810
2596.000000	99.970517
2595.000000	99.969067
2594.000000	99.967906
2593.000000	99.967391
2592.000000	99.967603
2591.000000	99.968236
2590.000000	99.968847
2589.000000	99.969290
2588.000000	99.969631
2587.000000	99.969665
2586.000000	99.968894
2585.000000	99.967196
2584.000000	99.965232
2583.000000	99.963923
2582.000000	99.963730
2581.000000	99.964508
2580.000000	99.965878
2579.000000	99.967523
2578.000000	99.969195
2577.000000	99.970702
2576.000000	99.971863
2575.000000	99.972442
2574.000000	99.972216
2573.000000	99.971320
2572.000000	99.970437
2571.000000	99.970311
2570.000000	99.971086
2569.000000	99.972225
2568.000000	99.973115
2567.000000	99.973617
2566.000000	99.973912
2565.000000	99.974072
2564.000000	99.974028
2563.000000	99.973869
2562.000000	99.973891
2561.000000	99.974231
2560.000000	99.974603
2559.000000	99.974575
2558.000000	99.974072
2557.000000	99.973481
2556.000000	99.973257
2555.000000	99.973481
2554.000000	99.973871
2553.000000	99.974139
2552.000000	99.974263
2551.000000	99.974428
2550.000000	99.974801
2549.000000	99.975391
2548.000000	99.976054
2547.000000	99.976574
2546.000000	99.976798
2545.000000	99.976819
2544.000000	99.976998
2543.000000	99.977689
2542.000000	99.978852
2541.000000	99.979964
2540.000000	99.980406
2539.000000	99.979986
2538.000000	99.979079
2537.000000	99.978312
2536.000000	99.977988
2535.000000	99.977799
2534.000000	99.977150
2533.000000	99.975845
2532.000000	99.974498
2531.000000	99.974056
2530.000000	99.974835
2529.000000	99.976218
2528.000000	99.977224
2527.000000	99.977481
2526.000000	99.977337
2525.000000	99.977262
2524.000000	99.977418
2523.000000	99.977768
2522.000000	99.978308
2521.000000	99.979034
2520.000000	99.979817
2519.000000	99.980487
2518.000000	99.980974
2517.000000	99.981287
2516.000000	99.981413
2515.000000	99.981385
2514.000000	99.981430
2513.000000	99.981854
2512.000000	99.982671
2511.000000	99.983397
2510.000000	99.983411
2509.000000	99.982591
2508.000000	99.981504
2507.000000	99.980954
2506.000000	99.981188
2505.000000	99.981747
2504.000000	99.982055
2503.000000	99.982061
2502.000000	99.982125
2501.000000	99.982463
2500.000000	99.982978
2499.000000	99.983564
2498.000000	99.984298
2497.000000	99.985245
2496.000000	99.986274
2495.000000	99.987201
2494.000000	99.987975
2493.000000	99.988643
2492.000000	99.989219
2491.000000	99.989677
2490.000000	99.990018
2489.000000	99.990276
2488.000000	99.990503
2487.000000	99.990805
2486.000000	99.991277
2485.000000	99.991869
2484.000000	99.992381
2483.000000	99.992683
2482.000000	99.992893
2481.000000	99.993246
2480.000000	99.993827
2479.000000	99.994504
2478.000000	99.995078
2477.000000	99.995448
2476.000000	99.995617
2475.000000	99.995651
2474.000000	99.995693
2473.000000	99.995948
2472.000000	99.996545
2471.000000	99.997430
2470.000000	99.998373
2469.000000	99.999125
2468.000000	99.999579
2467.000000	99.999792
2466.000000	99.999960
2465.000000	100.000320
2464.000000	100.001004
2463.000000	100.001988
2462.000000	100.003103
2461.000000	100.004128
2460.000000	100.004906
2459.000000	100.005401
2458.000000	100.005677
2457.000000	100.005847
2456.000000	100.006018
2455.000000	100.006273
2454.000000	100.006643
2453.000000	100.007083
2452.000000	100.007510
2451.000000	100.007894
2450.000000	100.008265
2449.000000	100.008642
2448.000000	100.008983
2447.000000	100.009250
2446.000000	100.009480
2445.000000	100.009732
2444.000000	100.010029
2443.000000	100.010401
2442.000000	100.010944
2441.000000	100.011732
2440.000000	100.012640
2439.000000	100.013359
2438.000000	100.013632
2437.000000	100.013460
2436.000000	100.013083
2435.000000	100.012801
2434.000000	100.012775
2433.000000	100.012939
2432.000000	100.013092
2431.000000	100.013116
2430.000000	100.013097
2429.000000	100.013192
2428.000000	100.013494
2427.000000	100.014105
2426.000000	100.015159
2425.000000	100.016514
2424.000000	100.017615
2423.000000	100.017982
2422.000000	100.017774
2421.000000	100.017724
2420.000000	100.018334
2419.000000	100.019346
2418.000000	100.020092
2417.000000	100.020190
2416.000000	100.019723
2415.000000	100.019007
2414.000000	100.018374
2413.000000	100.018045
2412.000000	100.018069
2411.000000	100.018320
2410.000000	100.018633
2409.000000	100.018910
2408.000000	100.019093
2407.000000	100.019161
2406.000000	100.019201
2405.000000	100.019389
2404.000000	100.019817
2403.000000	100.020358
2402.000000	100.020777
2401.000000	100.020988
2400.000000	100.021092
2399.000000	100.021220
2398.000000	100.021411
2397.000000	100.021648
2396.000000	100.021938
2395.000000	100.022271
2394.000000	100.022609
2393.000000	100.022915
2392.000000	100.023201
2391.000000	100.023480
2390.000000	100.023755
2389.000000	100.024026
2388.000000	100.024292
2387.000000	100.024546
2386.000000	100.024788
2385.000000	100.025021
2384.000000	100.025252
2383.000000	100.025487
2382.000000	100.025730
2381.000000	100.025978
2380.000000	100.026227
2379.000000	100.026471
2378.000000	100.026710
2377.000000	100.026954
2376.000000	100.027212
2375.000000	100.027490
2374.000000	100.027783
2373.000000	100.028081
2372.000000	100.028373
2371.000000	100.028657
2370.000000	100.028929
2369.000000	100.029188
2368.000000	100.029431
2367.000000	100.029656
2366.000000	100.029865
2365.000000	100.030059
2364.000000	100.030243
2363.000000	100.030418
2362.000000	100.030580
2361.000000	100.030725
2360.000000	100.030853
2359.000000	100.030974
2358.000000	100.031100
2357.000000	100.031239
2356.000000	100.031381
2355.000000	100.031515
2354.000000	100.031629
2353.000000	100.031722
2352.000000	100.031803
2351.000000	100.031883
2350.000000	100.031968
2349.000000	100.032053
2348.000000	100.032130
2347.000000	100.032188
2346.000000	100.032226
2345.000000	100.032248
2344.000000	100.032263
2343.000000	100.032272
2342.000000	100.032272
2341.000000	100.032255
2340.000000	100.032217
2339.000000	100.032155
2338.000000	100.032073
2337.000000	100.031984
2336.000000	100.031898
2335.000000	100.031817
2334.000000	100.031730
2333.000000	100.031626
2332.000000	100.031502
2331.000000	100.031363
2330.000000	100.031221
2329.000000	100.031084
2328.000000	100.030956
2327.000000	100.030838
2326.000000	100.030728
2325.000000	100.030623
2324.000000	100.030517
2323.000000	100.030409
2322.000000	100.030298
2321.000000	100.030186
2320.000000	100.030077
2319.000000	100.029971
2318.000000	100.029868
2317.000000	100.029763
2316.000000	100.029650
2315.000000	100.029520
2314.000000	100.029375
2313.000000	100.029221
2312.000000	100.029066
2311.000000	100.028911
2310.000000	100.028751
2309.000000	100.028577
2308.000000	100.028384
2307.000000	100.028179
2306.000000	100.027972
2305.000000	100.027772
2304.000000	100.027581
2303.000000	100.027394
2302.000000	100.027208
2301.000000	100.027020
2300.000000	100.026831
2299.000000	100.026647
2298.000000	100.026473
2297.000000	100.026314
2296.000000	100.026173
2295.000000	100.026045
2294.000000	100.025926
2293.000000	100.025805
2292.000000	100.025675
2291.000000	100.025537
2290.000000	100.025397
2289.000000	100.025263
2288.000000	100.025137
2287.000000	100.025015
2286.000000	100.024895
2285.000000	100.024775
2284.000000	100.024656
2283.000000	100.024537
2282.000000	100.024420
2281.000000	100.024303
2280.000000	100.024185
2279.000000	100.024061
2278.000000	100.023925
2277.000000	100.023778
2276.000000	100.023620
2275.000000	100.023458
2274.000000	100.023295
2273.000000	100.023134
2272.000000	100.022976
2271.000000	100.022821
2270.000000	100.022665
2269.000000	100.022504
2268.000000	100.022343
2267.000000	100.022206
2266.000000	100.022121
2265.000000	100.022095
2264.000000	100.022078
2263.000000	100.022001
2262.000000	100.021841
2261.000000	100.021662
2260.000000	100.021556
2259.000000	100.021566
2258.000000	100.021703
2257.000000	100.021959
2256.000000	100.022258
2255.000000	100.022451
2254.000000	100.022443
2253.000000	100.022294
2252.000000	100.022154
2251.000000	100.022100
2250.000000	100.022124
2249.000000	100.022213
2248.000000	100.022356
2247.000000	100.022482
2246.000000	100.022513
2245.000000	100.022473
2244.000000	100.022458
2243.000000	100.022467
2242.000000	100.022352
2241.000000	100.021964
2240.000000	100.021319
2239.000000	100.020661
2238.000000	100.020315
2237.000000	100.020420
2236.000000	100.020807
2235.000000	100.021146
2234.000000	100.021232
2233.000000	100.021104
2232.000000	100.020934
2231.000000	100.020918
2230.000000	100.021237
2229.000000	100.021951
2228.000000	100.022910
2227.000000	100.023793
2226.000000	100.024354
2225.000000	100.024568
2224.000000	100.024553
2223.000000	100.024453
2222.000000	100.024380
2221.000000	100.024383
2220.000000	100.024447
2219.000000	100.024541
2218.000000	100.024673
2217.000000	100.024859
2216.000000	100.025054
2215.000000	100.025189
2214.000000	100.025264
2213.000000	100.025355
2212.000000	100.025519
2211.000000	100.025734
2210.000000	100.025950
2209.000000	100.026150
2208.000000	100.026358
2207.000000	100.026592
2206.000000	100.026846
2205.000000	100.027107
2204.000000	100.027366
2203.000000	100.027627
2202.000000	100.027893
2201.000000	100.028170
2200.000000	100.028462
2199.000000	100.028764
2198.000000	100.029067
2197.000000	100.029359
2196.000000	100.029633
2195.000000	100.029888
2194.000000	100.030135
2193.000000	100.030385
2192.000000	100.030648
2191.000000	100.030924
2190.000000	100.031206
2189.000000	100.031481
2188.000000	100.031741
2187.000000	100.031985
2186.000000	100.032219
2185.000000	100.032453
2184.000000	100.032694
2183.000000	100.032948
2182.000000	100.033216
2181.000000	100.033494
2180.000000	100.033777
2179.000000	100.034060
2178.000000	100.034336
2177.000000	100.034605
2176.000000	100.034867
2175.000000	100.035128
2174.000000	100.035402
2173.000000	100.035698
2172.000000	100.036016
2171.000000	100.036330
2170.000000	100.036600
2169.000000	100.036805
2168.000000	100.036966
2167.000000	100.037124
2166.000000	100.037296
2165.000000	100.037478
2164.000000	100.037661
2163.000000	100.037847
2162.000000	100.038044
2161.000000	100.038258
2160.000000	100.038506
2159.000000	100.038801
2158.000000	100.039123
2157.000000	100.039399
2156.000000	100.039573
2155.000000	100.039650
2154.000000	100.039683
2153.000000	100.039731
2152.000000	100.039831
2151.000000	100.039976
2150.000000	100.040098
2149.000000	100.040112
2148.000000	100.039999
2147.000000	100.039848
2146.000000	100.039809
2145.000000	100.039951
2144.000000	100.040212
2143.000000	100.040476
2142.000000	100.040679
2141.000000	100.040829
2140.000000	100.040943
2139.000000	100.041036
2138.000000	100.041134
2137.000000	100.041266
2136.000000	100.041429
2135.000000	100.041596
2134.000000	100.041764
2133.000000	100.041951
2132.000000	100.042163
2131.000000	100.042374
2130.000000	100.042567
2129.000000	100.042759
2128.000000	100.042967
2127.000000	100.043177
2126.000000	100.043360
2125.000000	100.043517
2124.000000	100.043690
2123.000000	100.043926
2122.000000	100.044234
2121.000000	100.044591
2120.000000	100.044958
2119.000000	100.045301
2118.000000	100.045598
2117.000000	100.045849
2116.000000	100.046104
2115.000000	100.046437
2114.000000	100.046881
2113.000000	100.047400
2112.000000	100.047912
2111.000000	100.048386
2110.000000	100.048852
2109.000000	100.049348
2108.000000	100.049880
2107.000000	100.050463
2106.000000	100.051141
2105.000000	100.051929
2104.000000	100.052745
2103.000000	100.053463
2102.000000	100.054022
2101.000000	100.054451
2100.000000	100.054799
2099.000000	100.055124
2098.000000	100.055519
2097.000000	100.056071
2096.000000	100.056781
2095.000000	100.057544
2094.000000	100.058237
2093.000000	100.058794
2092.000000	100.059206
2091.000000	100.059514
2090.000000	100.059854
2089.000000	100.060399
2088.000000	100.061183
2087.000000	100.062022
2086.000000	100.062701
2085.000000	100.063248
2084.000000	100.063934
2083.000000	100.065004
2082.000000	100.066432
2081.000000	100.067908
2080.000000	100.069038
2079.000000	100.069623
2078.000000	100.069799
2077.000000	100.069941
2076.000000	100.070359
2075.000000	100.071052
2074.000000	100.071772
2073.000000	100.072316
2072.000000	100.072749
2071.000000	100.073314
2070.000000	100.074076
2069.000000	100.074708
2068.000000	100.074799
2067.000000	100.074363
2066.000000	100.073930
2065.000000	100.074013
2064.000000	100.074590
2063.000000	100.075200
2062.000000	100.075483
2061.000000	100.075470
2060.000000	100.075425
2059.000000	100.075628
2058.000000	100.076293
2057.000000	100.077457
2056.000000	100.078817
2055.000000	100.079818
2054.000000	100.080073
2053.000000	100.079619
2052.000000	100.078815
2051.000000	100.078099
2050.000000	100.077765
2049.000000	100.077817
2048.000000	100.077989
2047.000000	100.078013
2046.000000	100.077877
2045.000000	100.077712
2044.000000	100.077498
2043.000000	100.077096
2042.000000	100.076578
2041.000000	100.076231
2040.000000	100.076148
2039.000000	100.076051
2038.000000	100.075672
2037.000000	100.075082
2036.000000	100.074475
2035.000000	100.073865
2034.000000	100.073189
2033.000000	100.072589
2032.000000	100.072302
2031.000000	100.072287
2030.000000	100.072165
2029.000000	100.071545
2028.000000	100.070340
2027.000000	100.068806
2026.000000	100.067436
2025.000000	100.066734
2024.000000	100.066900
2023.000000	100.067655
2022.000000	100.068355
2021.000000	100.068408
2020.000000	100.067570
2019.000000	100.065939
2018.000000	100.063901
2017.000000	100.062019
2016.000000	100.060765
2015.000000	100.060252
2014.000000	100.060223
2013.000000	100.060300
2012.000000	100.060266
2011.000000	100.060211
2010.000000	100.060399
2009.000000	100.060906
2008.000000	100.061415
2007.000000	100.061553
2006.000000	100.061442
2005.000000	100.061605
2004.000000	100.062230
2003.000000	100.062876
2002.000000	100.062926
2001.000000	100.062124
2000.000000	100.060549
1999.000000	100.058498
1998.000000	100.056543
1997.000000	100.055094
1996.000000	100.053854
1995.000000	100.052195
1994.000000	100.050184
1993.000000	100.048712
1992.000000	100.048371
1991.000000	100.048778
1990.000000	100.049401
1989.000000	100.050314
1988.000000	100.051530
1987.000000	100.052395
1986.000000	100.052390
1985.000000	100.051967
1984.000000	100.051764
1983.000000	100.051509
1982.000000	100.050572
1981.000000	100.049371
1980.000000	100.049068
1979.000000	100.049961
1978.000000	100.051154
1977.000000	100.051852
1976.000000	100.052293
1975.000000	100.053033
1974.000000	100.054058
1973.000000	100.055003
1972.000000	100.055726
1971.000000	100.056184
1970.000000	100.056090
1969.000000	100.055188
1968.000000	100.053708
1967.000000	100.052243
1966.000000	100.051253
1965.000000	100.050941
1964.000000	100.051432
1963.000000	100.052643
1962.000000	100.054031
1961.000000	100.054913
1960.000000	100.055160
1959.000000	100.055265
1958.000000	100.055584
1957.000000	100.055783
1956.000000	100.055331
1955.000000	100.054281
1954.000000	100.053292
1953.000000	100.052865
1952.000000	100.052907
1951.000000	100.053076
1950.000000	100.053239
1949.000000	100.053475
1948.000000	100.053754
1947.000000	100.053890
1946.000000	100.053852
1945.000000	100.053851
1944.000000	100.054009
1943.000000	100.054101
1942.000000	100.053771
1941.000000	100.052915
1940.000000	100.051743
1939.000000	100.050561
1938.000000	100.049595
1937.000000	100.048962
1936.000000	100.048678
1935.000000	100.048743
1934.000000	100.049216
1933.000000	100.050006
1932.000000	100.050630
1931.000000	100.050425
1930.000000	100.049161
1929.000000	100.047452
1928.000000	100.046215
1927.000000	100.045837
1926.000000	100.046076
1925.000000	100.046564
1924.000000	100.047084
1923.000000	100.047194
1922.000000	100.046354
1921.000000	100.044600
1920.000000	100.042618
1919.000000	100.040937
1918.000000	100.039433
1917.000000	100.037810
1916.000000	100.036122
1915.000000	100.034556
1914.000000	100.033048
1913.000000	100.031482
1912.000000	100.030181
1911.000000	100.029680
1910.000000	100.030065
1909.000000	100.030860
1908.000000	100.031403
1907.000000	100.031400
1906.000000	100.030781
1905.000000	100.029462
1904.000000	100.027589
1903.000000	100.025590
1902.000000	100.024055
1901.000000	100.023333
1900.000000	100.023141
1899.000000	100.023079
1898.000000	100.023299
1897.000000	100.024222
1896.000000	100.025604
1895.000000	100.026206
1894.000000	100.025064
1893.000000	100.022602
1892.000000	100.019921
1891.000000	100.017364
1890.000000	100.014586
1889.000000	100.011768
1888.000000	100.009717
1887.000000	100.008809
1886.000000	100.008674
1885.000000	100.008837
1884.000000	100.009071
1883.000000	100.009070
1882.000000	100.008527
1881.000000	100.007787
1880.000000	100.007631
1879.000000	100.008352
1878.000000	100.009365
1877.000000	100.009955
1876.000000	100.010301
1875.000000	100.010982
1874.000000	100.011692
1873.000000	100.011373
1872.000000	100.009620
1871.000000	100.007428
1870.000000	100.006478
1869.000000	100.007631
1868.000000	100.009894
1867.000000	100.011378
1866.000000	100.011449
1865.000000	100.010873
1864.000000	100.010579
1863.000000	100.010981
1862.000000	100.011973
1861.000000	100.013175
1860.000000	100.014263
1859.000000	100.015346
1858.000000	100.017000
1857.000000	100.019574
1856.000000	100.022459
1855.000000	100.024496
1854.000000	100.025071
1853.000000	100.024659
1852.000000	100.023946
1851.000000	100.023282
1850.000000	100.022971
1849.000000	100.023144
1848.000000	100.023595
1847.000000	100.023945
1846.000000	100.024219
1845.000000	100.024856
1844.000000	100.025990
1843.000000	100.026882
1842.000000	100.026930
1841.000000	100.026585
1840.000000	100.026474
1839.000000	100.026745
1838.000000	100.027150
1837.000000	100.027446
1836.000000	100.027661
1835.000000	100.027868
1834.000000	100.028075
1833.000000	100.028255
1832.000000	100.028325
1831.000000	100.028348
1830.000000	100.028599
1829.000000	100.029152
1828.000000	100.029857
1827.000000	100.030635
1826.000000	100.031200
1825.000000	100.030959
1824.000000	100.029696
1823.000000	100.027980
1822.000000	100.026705
1821.000000	100.026302
1820.000000	100.026548
1819.000000	100.027125
1818.000000	100.027967
1817.000000	100.029126
1816.000000	100.030294
1815.000000	100.030649
1814.000000	100.029760
1813.000000	100.028085
1812.000000	100.026666
1811.000000	100.026191
1810.000000	100.026377
1809.000000	100.026730
1808.000000	100.027095
1807.000000	100.027404
1806.000000	100.027752
1805.000000	100.028524
1804.000000	100.029852
1803.000000	100.030885
1802.000000	100.030617
1801.000000	100.029188
1800.000000	100.027953
1799.000000	100.027900
1798.000000	100.028676
1797.000000	100.029622
1796.000000	100.030600
1795.000000	100.031745
1794.000000	100.033103
1793.000000	100.034463
1792.000000	100.035574
1791.000000	100.036266
1790.000000	100.036688
1789.000000	100.037546
1788.000000	100.039302
1787.000000	100.041439
1786.000000	100.042745
1785.000000	100.042456
1784.000000	100.041255
1783.000000	100.040679
1782.000000	100.042066
1781.000000	100.045349
1780.000000	100.048997
1779.000000	100.051759
1778.000000	100.053954
1777.000000	100.056946
1776.000000	100.061233
1775.000000	100.065873
1774.000000	100.069320
1773.000000	100.070336
1772.000000	100.069318
1771.000000	100.068461
1770.000000	100.069521
1769.000000	100.072320
1768.000000	100.075233
1767.000000	100.076788
1766.000000	100.077495
1765.000000	100.079278
1764.000000	100.083316
1763.000000	100.088439
1762.000000	100.091936
1761.000000	100.092081
1760.000000	100.089960
1759.000000	100.088100
1758.000000	100.088073
1757.000000	100.090191
1756.000000	100.093391
1755.000000	100.096341
1754.000000	100.098569
1753.000000	100.099905
1752.000000	100.099845
1751.000000	100.098887
1750.000000	100.098604
1749.000000	100.100295
1748.000000	100.103904
1747.000000	100.107783
1746.000000	100.110650
1745.000000	100.112213
1744.000000	100.112978
1743.000000	100.113581
1742.000000	100.114038
1741.000000	100.114192
1740.000000	100.114190
1739.000000	100.113587
1738.000000	100.111602
1737.000000	100.108634
1736.000000	100.105415
1735.000000	100.101133
1734.000000	100.096100
1733.000000	100.091781
1732.000000	100.088702
1731.000000	100.087277
1730.000000	100.086506
1729.000000	100.084863
1728.000000	100.082326
1727.000000	100.079934
1726.000000	100.078658
1725.000000	100.078351
1724.000000	100.078959
1723.000000	100.080403
1722.000000	100.081597
1721.000000	100.081657
1720.000000	100.080507
1719.000000	100.078209
1718.000000	100.075119
1717.000000	100.072733
1716.000000	100.072118
1715.000000	100.072282
1714.000000	100.071465
1713.000000	100.069345
1712.000000	100.067127
1711.000000	100.065427
1710.000000	100.063539
1709.000000	100.060613
1708.000000	100.056544
1707.000000	100.052223
1706.000000	100.048842
1705.000000	100.047241
1704.000000	100.047054
1703.000000	100.047327
1702.000000	100.047386
1701.000000	100.047014
1700.000000	100.046868
1699.000000	100.046411
1698.000000	100.044954
1697.000000	100.043144
1696.000000	100.041755
1695.000000	100.040872
1694.000000	100.039780
1693.000000	100.038099
1692.000000	100.035987
1691.000000	100.033631
1690.000000	100.031441
1689.000000	100.029871
1688.000000	100.028920
1687.000000	100.028467
1686.000000	100.028299
1685.000000	100.027902
1684.000000	100.027173
1683.000000	100.025921
1682.000000	100.024340
1681.000000	100.023191
1680.000000	100.022175
1679.000000	100.020617
1678.000000	100.018597
1677.000000	100.016593
1676.000000	100.015045
1675.000000	100.014164
1674.000000	100.013686
1673.000000	100.013001
1672.000000	100.012111
1671.000000	100.011306
1670.000000	100.010780
1669.000000	100.010480
1668.000000	100.009853
1667.000000	100.008952
1666.000000	100.008417
1665.000000	100.008428
1664.000000	100.008743
1663.000000	100.008752
1662.000000	100.007909
1661.000000	100.006183
1660.000000	100.004116
1659.000000	100.002514
1658.000000	100.001728
1657.000000	100.001351
1656.000000	100.000522
1655.000000	99.998675
1654.000000	99.995448
1653.000000	99.993699
1652.000000	99.994730
1651.000000	99.996335
1650.000000	99.998357
1649.000000	100.000015
1648.000000	99.999320
1647.000000	99.996154
1646.000000	99.992443
1645.000000	99.990143
1644.000000	99.990387
1643.000000	99.993420
1642.000000	99.998355
1641.000000	100.003247
1640.000000	100.006008
1639.000000	100.006368
1638.000000	100.005616
1637.000000	100.005167
1636.000000	100.005963
1635.000000	100.008296
1634.000000	100.011250
1633.000000	100.014204
1632.000000	100.017194
1631.000000	100.019690
1630.000000	100.021445
1629.000000	100.022742
1628.000000	100.023991
1627.000000	100.025464
1626.000000	100.027478
1625.000000	100.029779
1624.000000	100.031300
1623.000000	100.031616
1622.000000	100.031781
1621.000000	100.032796
1620.000000	100.034277
1619.000000	100.035501
1618.000000	100.036391
1617.000000	100.038167
1616.000000	100.041294
1615.000000	100.044618
1614.000000	100.048321
1613.000000	100.053382
1612.000000	100.059242
1611.000000	100.064404
1610.000000	100.068442
1609.000000	100.071772
1608.000000	100.074176
1607.000000	100.075190
1606.000000	100.075944
1605.000000	100.078193
1604.000000	100.082146
1603.000000	100.086979
1602.000000	100.091746
1601.000000	100.095575
1600.000000	100.097735
1599.000000	100.098296
1598.000000	100.098604
1597.000000	100.100103
1596.000000	100.102851
1595.000000	100.105449
1594.000000	100.106588
1593.000000	100.106203
1592.000000	100.105061
1591.000000	100.103983
1590.000000	100.103717
1589.000000	100.104840
1588.000000	100.107283
1587.000000	100.110296
1586.000000	100.112804
1585.000000	100.114282
1584.000000	100.114589
1583.000000	100.114255
1582.000000	100.113948
1581.000000	100.113169
1580.000000	100.111017
1579.000000	100.108250
1578.000000	100.106904
1577.000000	100.107576
1576.000000	100.108531
1575.000000	100.107629
1574.000000	100.105732
1573.000000	100.104708
1572.000000	100.103953
1571.000000	100.101693
1570.000000	100.098382
1569.000000	100.096744
1568.000000	100.097295
1567.000000	100.099031
1566.000000	100.101335
1565.000000	100.103378
1564.000000	100.103595
1563.000000	100.101499
1562.000000	100.097793
1561.000000	100.093647
1560.000000	100.088465
1559.000000	100.085328
1558.000000	100.085366
1557.000000	100.085448
1556.000000	100.086433
1555.000000	100.087962
1554.000000	100.088156
1553.000000	100.086646
1552.000000	100.084076
1551.000000	100.081343
1550.000000	100.078217
1549.000000	100.074747
1548.000000	100.071482
1547.000000	100.068654
1546.000000	100.065983
1545.000000	100.063451
1544.000000	100.061744
1543.000000	100.061102
1542.000000	100.060314
1541.000000	100.058029
1540.000000	100.055108
1539.000000	100.052435
1538.000000	100.049219
1537.000000	100.045374
1536.000000	100.041445
1535.000000	100.037305
1534.000000	100.033165
1533.000000	100.029509
1532.000000	100.026466
1531.000000	100.024304
1530.000000	100.023117
1529.000000	100.022469
1528.000000	100.021748
1527.000000	100.020215
1526.000000	100.017303
1525.000000	100.012888
1524.000000	100.007733
1523.000000	100.003238
1522.000000	100.000467
1521.000000	99.999002
1520.000000	99.996562
1519.000000	99.992542
1518.000000	99.988814
1517.000000	99.986552
1516.000000	99.985163
1515.000000	99.983258
1514.000000	99.981097
1513.000000	99.979755
1512.000000	99.979230
1511.000000	99.978431
1510.000000	99.976330
1509.000000	99.973344
1508.000000	99.970731
1507.000000	99.970047
1506.000000	99.969943
1505.000000	99.968400
1504.000000	99.966732
1503.000000	99.965961
1502.000000	99.965490
1501.000000	99.964848
1500.000000	99.963665
1499.000000	99.961335
1498.000000	99.957318
1497.000000	99.952701
1496.000000	99.950185
1495.000000	99.949969
1494.000000	99.949931
1493.000000	99.949287
1492.000000	99.948836
1491.000000	99.949225
1490.000000	99.950136
1489.000000	99.950743
1488.000000	99.950891
1487.000000	99.950356
1486.000000	99.948456
1485.000000	99.945933
1484.000000	99.943792
1483.000000	99.942215
1482.000000	99.940631
1481.000000	99.938889
1480.000000	99.938065
1479.000000	99.938943
1478.000000	99.940857
1477.000000	99.942217
1476.000000	99.942432
1475.000000	99.942326
1474.000000	99.943888
1473.000000	99.948846
1472.000000	99.956070
1471.000000	99.961765
1470.000000	99.963881
1469.000000	99.963240
1468.000000	99.961552
1467.000000	99.960476
1466.000000	99.961367
1465.000000	99.964536
1464.000000	99.968176
1463.000000	99.970367
1462.000000	99.970824
1461.000000	99.970580
1460.000000	99.970686
1459.000000	99.971494
1458.000000	99.971738
1457.000000	99.970088
1456.000000	99.967373
1455.000000	99.965678
1454.000000	99.965827
1453.000000	99.966003
1452.000000	99.964400
1451.000000	99.961525
1450.000000	99.959133
1449.000000	99.958051
1448.000000	99.957844
1447.000000	99.957243
1446.000000	99.955962
1445.000000	99.954693
1444.000000	99.954199
1443.000000	99.954971
1442.000000	99.956273
1441.000000	99.957017
1440.000000	99.956977
1439.000000	99.956902
1438.000000	99.956478
1437.000000	99.954616
1436.000000	99.951825
1435.000000	99.950239
1434.000000	99.951099
1433.000000	99.953589
1432.000000	99.955706
1431.000000	99.956167
1430.000000	99.955336
1429.000000	99.954295
1428.000000	99.953994
1427.000000	99.954431
1426.000000	99.955534
1425.000000	99.957386
1424.000000	99.960194
1423.000000	99.964319
1422.000000	99.969408
1421.000000	99.974484
1420.000000	99.978100
1419.000000	99.979519
1418.000000	99.978918
1417.000000	99.977579
1416.000000	99.977925
1415.000000	99.981241
1414.000000	99.986537
1413.000000	99.991620
1412.000000	99.995193
1411.000000	99.997787
1410.000000	100.000192
1409.000000	100.002248
1408.000000	100.003964
1407.000000	100.005923
1406.000000	100.008519
1405.000000	100.010832
1404.000000	100.011513
1403.000000	100.011154
1402.000000	100.011665
1401.000000	100.013998
1400.000000	100.017473
1399.000000	100.021047
1398.000000	100.024516
1397.000000	100.028469
1396.000000	100.033382
1395.000000	100.038840
1394.000000	100.043869
1393.000000	100.047440
1392.000000	100.049233
1391.000000	100.049800
1390.000000	100.050017
1389.000000	100.050512
1388.000000	100.051386
1387.000000	100.052450
1386.000000	100.053680
1385.000000	100.055211
1384.000000	100.056898
1383.000000	100.058438
1382.000000	100.059813
1381.000000	100.061377
1380.000000	100.063242
1379.000000	100.064965
1378.000000	100.066163
1377.000000	100.067020
1376.000000	100.068002
1375.000000	100.069278
1374.000000	100.070675
1373.000000	100.071940
1372.000000	100.073142
1371.000000	100.074618
1370.000000	100.076612
1369.000000	100.078862
1368.000000	100.080633
1367.000000	100.081472
1366.000000	100.081695
1365.000000	100.082085
1364.000000	100.083160
1363.000000	100.084788
1362.000000	100.086421
1361.000000	100.087733
1360.000000	100.088846
1359.000000	100.089932
1358.000000	100.090985
1357.000000	100.091934
1356.000000	100.092784
1355.000000	100.093613
1354.000000	100.094447
1353.000000	100.095184
1352.000000	100.095680
1351.000000	100.095873
1350.000000	100.095972
1349.000000	100.096417
1348.000000	100.097553
1347.000000	100.099335
1346.000000	100.101195
1345.000000	100.102452
1344.000000	100.102843
1343.000000	100.102637
1342.000000	100.102315
1341.000000	100.102154
1340.000000	100.102188
1339.000000	100.102427
1338.000000	100.102935
1337.000000	100.103777
1336.000000	100.105051
1335.000000	100.106859
1334.000000	100.109039
1333.000000	100.110895
1332.000000	100.111600
1331.000000	100.111071
1330.000000	100.110274
1329.000000	100.110186
1328.000000	100.110617
1327.000000	100.110552
1326.000000	100.109539
1325.000000	100.108083
1324.000000	100.106752
1323.000000	100.105620
1322.000000	100.104794
1321.000000	100.104912
1320.000000	100.106546
1319.000000	100.109276
1318.000000	100.111833
1317.000000	100.113336
1316.000000	100.113925
1315.000000	100.114139
1314.000000	100.114144
1313.000000	100.113823
1312.000000	100.113337
1311.000000	100.113120
1310.000000	100.113318
1309.000000	100.113522
1308.000000	100.113292
1307.000000	100.112697
1306.000000	100.112239
1305.000000	100.112215
1304.000000	100.112381
1303.000000	100.112253
1302.000000	100.111589
1301.000000	100.110679
1300.000000	100.110303
1299.000000	100.111224
1298.000000	100.113261
1297.000000	100.114904
1296.000000	100.114484
1295.000000	100.112060
1294.000000	100.109718
1293.000000	100.109303
1292.000000	100.110101
1291.000000	100.109644
1290.000000	100.106848
1289.000000	100.103506
1288.000000	100.102202
1287.000000	100.103545
1286.000000	100.106236
1285.000000	100.109150
1284.000000	100.112147
1283.000000	100.114898
1282.000000	100.116327
1281.000000	100.115861
1280.000000	100.114396
1279.000000	100.113201
1278.000000	100.112062
1277.000000	100.109335
1276.000000	100.104029
1275.000000	100.097459
1274.000000	100.092501
1273.000000	100.091121
1272.000000	100.092710
1271.000000	100.094927
1270.000000	100.096304
1269.000000	100.097834
1268.000000	100.101605
1267.000000	100.108008
1266.000000	100.114706
1265.000000	100.118584
1264.000000	100.118412
1263.000000	100.115445
1262.000000	100.111915
1261.000000	100.109391
1260.000000	100.108374
1259.000000	100.108841
1258.000000	100.110601
1257.000000	100.113073
1256.000000	100.115163
1255.000000	100.115839
1254.000000	100.114917
1253.000000	100.112851
1252.000000	100.109675
1251.000000	100.104868
1250.000000	100.098735
1249.000000	100.092948
1248.000000	100.088483
1247.000000	100.083620
1246.000000	100.075794
1245.000000	100.065688
1244.000000	100.057611
1243.000000	100.054545
1242.000000	100.054197
1241.000000	100.051722
1240.000000	100.045531
1239.000000	100.038711
1238.000000	100.035169
1237.000000	100.035856
1236.000000	100.038467
1235.000000	100.039099
1234.000000	100.034224
1233.000000	100.023012
1232.000000	100.008440
1231.000000	99.994862
1230.000000	99.983769
1229.000000	99.973079
1228.000000	99.960899
1227.000000	99.948056
1226.000000	99.935823
1225.000000	99.922931
1224.000000	99.906812
1223.000000	99.886923
1222.000000	99.864794
1221.000000	99.841099
1220.000000	99.814723
1219.000000	99.785441
1218.000000	99.756056
1217.000000	99.730499
1216.000000	99.709836
1215.000000	99.690516
1214.000000	99.666656
1213.000000	99.634326
1212.000000	99.594270
1211.000000	99.551112
1210.000000	99.510070
1209.000000	99.474111
1208.000000	99.443314
1207.000000	99.415467
1206.000000	99.387107
1205.000000	99.355527
1204.000000	99.320897
1203.000000	99.286116
1202.000000	99.253943
1201.000000	99.224256
1200.000000	99.194304
1199.000000	99.161446
1198.000000	99.125719
1197.000000	99.089962
1196.000000	99.057195
1195.000000	99.027477
1194.000000	98.997805
1193.000000	98.965516
1192.000000	98.930853
1191.000000	98.895406
1190.000000	98.859251
1189.000000	98.821257
1188.000000	98.781462
1187.000000	98.741327
1186.000000	98.701902
1185.000000	98.663102
1184.000000	98.624108
1183.000000	98.582962
1182.000000	98.537056
1181.000000	98.486355
1180.000000	98.435088
1179.000000	98.387352
1178.000000	98.341719
1177.000000	98.293381
1176.000000	98.241036
1175.000000	98.187925
1174.000000	98.136098
1173.000000	98.083935
1172.000000	98.030336
1171.000000	97.977289
1170.000000	97.926610
1169.000000	97.877673
1168.000000	97.830391
1167.000000	97.787623
1166.000000	97.752950
1165.000000	97.728691
1164.000000	97.717028
1163.000000	97.719517
1162.000000	97.733533
1161.000000	97.751910
1160.000000	97.767796
1159.000000	97.777722
1158.000000	97.779407
1157.000000	97.770105
1156.000000	97.748989
1155.000000	97.718664
1154.000000	97.682418
1153.000000	97.641735
1152.000000	97.597757
1151.000000	97.553020
1150.000000	97.510158
1149.000000	97.470525
1148.000000	97.434786
1147.000000	97.402440
1146.000000	97.370093
1145.000000	97.333257
1144.000000	97.291237
1143.000000	97.247895
1142.000000	97.206678
1141.000000	97.167588
1140.000000	97.129788
1139.000000	97.093647
1138.000000	97.058714
1137.000000	97.022892
1136.000000	96.985284
1135.000000	96.946795
1134.000000	96.906656
1133.000000	96.862094
1132.000000	96.813410
1131.000000	96.765700
1130.000000	96.722814
1129.000000	96.682605
1128.000000	96.640930
1127.000000	96.597532
1126.000000	96.554918
1125.000000	96.513581
1124.000000	96.471543
1123.000000	96.427679
1122.000000	96.383335
1121.000000	96.341152
1120.000000	96.302961
1119.000000	96.267535
1118.000000	96.230318
1117.000000	96.187843
1116.000000	96.142797
1115.000000	96.101913
1114.000000	96.068147
1113.000000	96.037672
1112.000000	96.005011
1111.000000	95.968037
1110.000000	95.927545
1109.000000	95.885619
1108.000000	95.845550
1107.000000	95.810003
1106.000000	95.778237
1105.000000	95.747649
1104.000000	95.717683
1103.000000	95.689012
1102.000000	95.660273
1101.000000	95.630412
1100.000000	95.603100
1099.000000	95.582578
1098.000000	95.565454
1097.000000	95.543274
1096.000000	95.513933
1095.000000	95.483750
1094.000000	95.457080
1093.000000	95.431141
1092.000000	95.403518
1091.000000	95.377632
1090.000000	95.356945
1089.000000	95.339496
1088.000000	95.322134
1087.000000	95.305309
1086.000000	95.290062
1085.000000	95.274585
1084.000000	95.257219
1083.000000	95.239287
1082.000000	95.222167
1081.000000	95.204985
1080.000000	95.187482
1079.000000	95.171341
1078.000000	95.156160
1077.000000	95.137557
1076.000000	95.111794
1075.000000	95.079583
1074.000000	95.043730
1073.000000	95.005527
1072.000000	94.964296
1071.000000	94.917586
1070.000000	94.861311
1069.000000	94.792867
1068.000000	94.714340
1067.000000	94.629383
1066.000000	94.537769
1065.000000	94.437743
1064.000000	94.333244
1063.000000	94.232841
1062.000000	94.140568
1061.000000	94.053471
1060.000000	93.969207
1059.000000	93.890089
1058.000000	93.818091
1057.000000	93.751214
1056.000000	93.686020
1055.000000	93.618689
1054.000000	93.543443
1053.000000	93.456420
1052.000000	93.362380
1051.000000	93.271022
1050.000000	93.185161
1049.000000	93.099601
1048.000000	93.012000
1047.000000	92.925792
1046.000000	92.841796
1045.000000	92.756206
1044.000000	92.667957
1043.000000	92.579961
1042.000000	92.492174
1041.000000	92.401621
1040.000000	92.310833
1039.000000	92.228142
1038.000000	92.157355
1037.000000	92.094358
1036.000000	92.035366
1035.000000	91.980987
1034.000000	91.931054
1033.000000	91.883780
1032.000000	91.841331
1031.000000	91.807643
1030.000000	91.779435
1029.000000	91.748708
1028.000000	91.716262
1027.000000	91.692954
1026.000000	91.684286
1025.000000	91.682693
1024.000000	91.678511
1023.000000	91.670360
1022.000000	91.660929
1021.000000	91.650557
1020.000000	91.639363
1019.000000	91.629095
1018.000000	91.619205
1017.000000	91.606686
1016.000000	91.591929
1015.000000	91.578513
1014.000000	91.565870
1013.000000	91.549547
1012.000000	91.530688
1011.000000	91.517708
1010.000000	91.516056
1009.000000	91.523146
1008.000000	91.535005
1007.000000	91.550270
1006.000000	91.565693
1005.000000	91.576086
1004.000000	91.582222
1003.000000	91.591806
1002.000000	91.609293
1001.000000	91.631104
1000.000000	91.653422
999.000000	91.677965
998.000000	91.706852
997.000000	91.738263
996.000000	91.770789
995.000000	91.806584
994.000000	91.846919
993.000000	91.889390
992.000000	91.932090
991.000000	91.975973
990.000000	92.020942
989.000000	92.064106
988.000000	92.103984
987.000000	92.142815
986.000000	92.183951
985.000000	92.230973
984.000000	92.288947
983.000000	92.360871
982.000000	92.442284
981.000000	92.524811
980.000000	92.605624
979.000000	92.688238
978.000000	92.774379
977.000000	92.861680
976.000000	92.949974
975.000000	93.042931
974.000000	93.141514
973.000000	93.241561
972.000000	93.339994
971.000000	93.438423
970.000000	93.538537
969.000000	93.638270
968.000000	93.734538
967.000000	93.826429
966.000000	93.914539
965.000000	94.000184
964.000000	94.085714
963.000000	94.172456
962.000000	94.258271
961.000000	94.340350
960.000000	94.419926
959.000000	94.500589
958.000000	94.582389
957.000000	94.661344
956.000000	94.734595
955.000000	94.802513
954.000000	94.866339
953.000000	94.927262
952.000000	94.987199
951.000000	95.046763
950.000000	95.103230
949.000000	95.154055
948.000000	95.201012
947.000000	95.246967
946.000000	95.290284
945.000000	95.327080
944.000000	95.357820
943.000000	95.386900
942.000000	95.416419
941.000000	95.445230
940.000000	95.473484
939.000000	95.502893
938.000000	95.532881
937.000000	95.561550
936.000000	95.590319
935.000000	95.622904
934.000000	95.659860
933.000000	95.698573
932.000000	95.738109
931.000000	95.779455
930.000000	95.821533
929.000000	95.861566
928.000000	95.898738
927.000000	95.933259
926.000000	95.963349
925.000000	95.988127
924.000000	96.011599
923.000000	96.038026
922.000000	96.065109
921.000000	96.088362
920.000000	96.110479
919.000000	96.138380
918.000000	96.171618
917.000000	96.202493
916.000000	96.228369
915.000000	96.254826
914.000000	96.284424
913.000000	96.311877
912.000000	96.334980
911.000000	96.362392
910.000000	96.404472
909.000000	96.462241
908.000000	96.530371
907.000000	96.605191
906.000000	96.683456
905.000000	96.757851
904.000000	96.821981
903.000000	96.879589
902.000000	96.942961
901.000000	97.020750
900.000000	97.109999
899.000000	97.200174
898.000000	97.283030
897.000000	97.357832
896.000000	97.428400
895.000000	97.497379
894.000000	97.564916
893.000000	97.632052
892.000000	97.701709
891.000000	97.773940
890.000000	97.842979
889.000000	97.902949
888.000000	97.955086
887.000000	98.005230
886.000000	98.054708
885.000000	98.098200
884.000000	98.131378
883.000000	98.156618
882.000000	98.179833
881.000000	98.204642
880.000000	98.230959
879.000000	98.256611
878.000000	98.279311
877.000000	98.299891
876.000000	98.324343
875.000000	98.359353
874.000000	98.404722
873.000000	98.453308
872.000000	98.499292
871.000000	98.543408
870.000000	98.589557
869.000000	98.639990
868.000000	98.694832
867.000000	98.752643
866.000000	98.809758
865.000000	98.862025
864.000000	98.908736
863.000000	98.952416
862.000000	98.993724
861.000000	99.029708
860.000000	99.059268
859.000000	99.087831
858.000000	99.123846
857.000000	99.171336
856.000000	99.226998
855.000000	99.282848
854.000000	99.330532
853.000000	99.365618
852.000000	99.390460
851.000000	99.412369
850.000000	99.437122
849.000000	99.464295
848.000000	99.489245
847.000000	99.508031
846.000000	99.519813
845.000000	99.526817
844.000000	99.533648
843.000000	99.544434
842.000000	99.558043
841.000000	99.567749
840.000000	99.568339
839.000000	99.562209
838.000000	99.555303
837.000000	99.548200
836.000000	99.535903
835.000000	99.517295
834.000000	99.499981
833.000000	99.492297
832.000000	99.493568
831.000000	99.496914
830.000000	99.500755
829.000000	99.511982
828.000000	99.535042
827.000000	99.561877
826.000000	99.577998
825.000000	99.577896
824.000000	99.569623
823.000000	99.563484
822.000000	99.560776
821.000000	99.555613
820.000000	99.543640
819.000000	99.525793
818.000000	99.505668
817.000000	99.485452
816.000000	99.463447
815.000000	99.434384
814.000000	99.392580
813.000000	99.334627
812.000000	99.257938
811.000000	99.157720
810.000000	99.028525
809.000000	98.869484
808.000000	98.685343
807.000000	98.481227
806.000000	98.259283
805.000000	98.023208
804.000000	97.784003
803.000000	97.557236
802.000000	97.354878
801.000000	97.183118
800.000000	97.047198
799.000000	96.953390
798.000000	96.905177
797.000000	96.900290
796.000000	96.930587
795.000000	96.982313
794.000000	97.040064
793.000000	97.095643
792.000000	97.150186
791.000000	97.202990
790.000000	97.242728
789.000000	97.256626
788.000000	97.244802
787.000000	97.217011
786.000000	97.176894
785.000000	97.118757
784.000000	97.040957
783.000000	96.953770
782.000000	96.870886
781.000000	96.800179
780.000000	96.746260
779.000000	96.714962
778.000000	96.709493
777.000000	96.726049
776.000000	96.758077
775.000000	96.803301
774.000000	96.864188
773.000000	96.942597
772.000000	97.034331
771.000000	97.127347
770.000000	97.207054
769.000000	97.267023
768.000000	97.313368
767.000000	97.355547
766.000000	97.395040
765.000000	97.427524
764.000000	97.453908
763.000000	97.482363
762.000000	97.519111
761.000000	97.563012
760.000000	97.609905
759.000000	97.656489
758.000000	97.698802
757.000000	97.732984
756.000000	97.760531
755.000000	97.788765
754.000000	97.823539
753.000000	97.864106
752.000000	97.905998
751.000000	97.945407
750.000000	97.980242
749.000000	98.011218
748.000000	98.043219
747.000000	98.081646
746.000000	98.125845
745.000000	98.169650
744.000000	98.209199
743.000000	98.245816
742.000000	98.280593
741.000000	98.312306
740.000000	98.343855
739.000000	98.384936
738.000000	98.442276
737.000000	98.509453
736.000000	98.571896
735.000000	98.621346
734.000000	98.661261
733.000000	98.698241
732.000000	98.732286
731.000000	98.757856
730.000000	98.772275
729.000000	98.779510
728.000000	98.785032
727.000000	98.789807
726.000000	98.792156
725.000000	98.794482
724.000000	98.804347
723.000000	98.827204
722.000000	98.860236
721.000000	98.895487
720.000000	98.927662
719.000000	98.956687
718.000000	98.983636
717.000000	99.007031
716.000000	99.023907
715.000000	99.033541
714.000000	99.039838
713.000000	99.049418
712.000000	99.065602
711.000000	99.084407
710.000000	99.098994
709.000000	99.108427
708.000000	99.118406
707.000000	99.131409
706.000000	99.139717
705.000000	99.131721
704.000000	99.102833
703.000000	99.057411
702.000000	99.001803
701.000000	98.937765
700.000000	98.860579
699.000000	98.762133
698.000000	98.641267
697.000000	98.515771
696.000000	98.418647
695.000000	98.374937
694.000000	98.383931
693.000000	98.426362
692.000000	98.484680
691.000000	98.550968
690.000000	98.620338
689.000000	98.688172
688.000000	98.754411
687.000000	98.821326
686.000000	98.884869
685.000000	98.935408
684.000000	98.968271
683.000000	98.987485
682.000000	98.999195
681.000000	99.007841
680.000000	99.018730
679.000000	99.036887
678.000000	99.061515
677.000000	99.087477
676.000000	99.113321
675.000000	99.141947
674.000000	99.172673
673.000000	99.198726
672.000000	99.214807
671.000000	99.222899
670.000000	99.230176
669.000000	99.247116
668.000000	99.283332
667.000000	99.330627
666.000000	99.369203
665.000000	99.396222
664.000000	99.422485
663.000000	99.455764
662.000000	99.489577
661.000000	99.509182
660.000000	99.511161
659.000000	99.507044
658.000000	99.505573
657.000000	99.501957
656.000000	99.491960
655.000000	99.486272
654.000000	99.498353
653.000000	99.522483
652.000000	99.537436
651.000000	99.532155
650.000000	99.518785
649.000000	99.517948
648.000000	99.538623
647.000000	99.575615
646.000000	99.618841
645.000000	99.660577
644.000000	99.695847
643.000000	99.721199
642.000000	99.736738
641.000000	99.747349
640.000000	99.758322
639.000000	99.771831
638.000000	99.788503
637.000000	99.808880
636.000000	99.830283
635.000000	99.844803
634.000000	99.846402
633.000000	99.840390
632.000000	99.841203
631.000000	99.860294
630.000000	99.898554
629.000000	99.949097
628.000000	100.002239
627.000000	100.045933
626.000000	100.069726
625.000000	100.074614
624.000000	100.073380
623.000000	100.076221
622.000000	100.081275
621.000000	100.083834
620.000000	100.086341
619.000000	100.091403
618.000000	100.093025
617.000000	100.086073
616.000000	100.078463
615.000000	100.081380
614.000000	100.092099
613.000000	100.100795
612.000000	100.109988
611.000000	100.130925
610.000000	100.160106
609.000000	100.175201
608.000000	100.160753
607.000000	100.123806
606.000000	100.083108
605.000000	100.053208
604.000000	100.043738
603.000000	100.064272
602.000000	100.112538
601.000000	100.163075
600.000000	100.183559
599.000000	100.164344
598.000000	100.126136
597.000000	100.097010
596.000000	100.085564
595.000000	100.082599
594.000000	100.079614
593.000000	100.077505
592.000000	100.078542
591.000000	100.078162
590.000000	100.070315
589.000000	100.057704
588.000000	100.050652
587.000000	100.056021
586.000000	100.070883
585.000000	100.088551
584.000000	100.106392
583.000000	100.123110
582.000000	100.134258
581.000000	100.137050
580.000000	100.134325
579.000000	100.129032
578.000000	100.118466
577.000000	100.100017
576.000000	100.081485
575.000000	100.076446
574.000000	100.088325
573.000000	100.108423
572.000000	100.130148
571.000000	100.155336
570.000000	100.186016
569.000000	100.216492
568.000000	100.232029
567.000000	100.213742
566.000000	100.154321
565.000000	100.073795
564.000000	100.014165
563.000000	100.002966
562.000000	100.029951
561.000000	100.059635
560.000000	100.070628
559.000000	100.070803
558.000000	100.070237
557.000000	100.063062
556.000000	100.044249
555.000000	100.026249
554.000000	100.024168
553.000000	100.035871
552.000000	100.049840
551.000000	100.062270
550.000000	100.073142
