PE IR       SUBTECH     SPECTRUM    ASCII       PEDS        4.00        
   -1
BH1 8-5 18 0_1.asc
24/05/14
13:32:05.00
24/05/14
13:33:22.00
Administrator
?品 052 用? Administrator 日期 Tuesday, May 14 2024
550.000000
#HDR
-1
-1
#GR
cm-1
%T
1.0
0.0
4000.000000
-1.000000
3451
8
101.015551
74.049219
#DATA
4000.000000	100.665515
3999.000000	100.665199
3998.000000	100.665171
3997.000000	100.665363
3996.000000	100.665392
3995.000000	100.665037
3994.000000	100.664383
3993.000000	100.663839
3992.000000	100.663702
3991.000000	100.663893
3990.000000	100.663977
3989.000000	100.663587
3988.000000	100.662788
3987.000000	100.662065
3986.000000	100.661916
3985.000000	100.662486
3984.000000	100.663517
3983.000000	100.664479
3982.000000	100.664955
3981.000000	100.664928
3980.000000	100.664693
3979.000000	100.664539
3978.000000	100.664499
3977.000000	100.664405
3976.000000	100.664093
3975.000000	100.663510
3974.000000	100.662705
3973.000000	100.661778
3972.000000	100.660870
3971.000000	100.660151
3970.000000	100.659780
3969.000000	100.659820
3968.000000	100.660146
3967.000000	100.660464
3966.000000	100.660484
3965.000000	100.660106
3964.000000	100.659496
3963.000000	100.658973
3962.000000	100.658767
3961.000000	100.658827
3960.000000	100.658861
3959.000000	100.658607
3958.000000	100.658088
3957.000000	100.657631
3956.000000	100.657598
3955.000000	100.658050
3954.000000	100.658716
3953.000000	100.659324
3952.000000	100.659859
3951.000000	100.660450
3950.000000	100.661042
3949.000000	100.661283
3948.000000	100.660791
3947.000000	100.659475
3946.000000	100.657713
3945.000000	100.656343
3944.000000	100.656113
3943.000000	100.657129
3942.000000	100.658724
3941.000000	100.659911
3940.000000	100.660251
3939.000000	100.660071
3938.000000	100.659997
3937.000000	100.660294
3936.000000	100.660645
3935.000000	100.660515
3934.000000	100.659696
3933.000000	100.658530
3932.000000	100.657656
3931.000000	100.657492
3930.000000	100.658051
3929.000000	100.659151
3928.000000	100.660585
3927.000000	100.662061
3926.000000	100.663163
3925.000000	100.663506
3924.000000	100.662993
3923.000000	100.661939
3922.000000	100.660872
3921.000000	100.660089
3920.000000	100.659337
3919.000000	100.657972
3918.000000	100.655613
3917.000000	100.652715
3916.000000	100.650436
3915.000000	100.649785
3914.000000	100.651020
3913.000000	100.653582
3912.000000	100.656411
3911.000000	100.658713
3910.000000	100.660419
3909.000000	100.661846
3908.000000	100.662907
3907.000000	100.662722
3906.000000	100.660367
3905.000000	100.656199
3904.000000	100.652322
3903.000000	100.650977
3902.000000	100.652520
3901.000000	100.655297
3900.000000	100.657138
3899.000000	100.657064
3898.000000	100.655552
3897.000000	100.653639
3896.000000	100.651978
3895.000000	100.650447
3894.000000	100.648456
3893.000000	100.645709
3892.000000	100.642974
3891.000000	100.641551
3890.000000	100.641832
3889.000000	100.642960
3888.000000	100.643819
3887.000000	100.644149
3886.000000	100.644835
3885.000000	100.646898
3884.000000	100.650391
3883.000000	100.654423
3882.000000	100.657765
3881.000000	100.659434
3880.000000	100.659216
3879.000000	100.657714
3878.000000	100.655825
3877.000000	100.654157
3876.000000	100.652837
3875.000000	100.651544
3874.000000	100.649594
3873.000000	100.646466
3872.000000	100.642869
3871.000000	100.641065
3870.000000	100.643036
3869.000000	100.648146
3868.000000	100.653382
3867.000000	100.656118
3866.000000	100.655688
3865.000000	100.652977
3864.000000	100.649739
3863.000000	100.647644
3862.000000	100.647382
3861.000000	100.648733
3860.000000	100.651296
3859.000000	100.654947
3858.000000	100.659610
3857.000000	100.664606
3856.000000	100.668392
3855.000000	100.669672
3854.000000	100.669080
3853.000000	100.668399
3852.000000	100.667673
3851.000000	100.665817
3850.000000	100.662717
3849.000000	100.659261
3848.000000	100.656569
3847.000000	100.655538
3846.000000	100.656575
3845.000000	100.659453
3844.000000	100.663389
3843.000000	100.667126
3842.000000	100.669208
3841.000000	100.668691
3840.000000	100.665661
3839.000000	100.661305
3838.000000	100.657418
3837.000000	100.655210
3836.000000	100.654780
3835.000000	100.655609
3834.000000	100.657059
3833.000000	100.658586
3832.000000	100.659698
3831.000000	100.659994
3830.000000	100.659415
3829.000000	100.658370
3828.000000	100.657573
3827.000000	100.657562
3826.000000	100.658178
3825.000000	100.658687
3824.000000	100.658474
3823.000000	100.657615
3822.000000	100.656826
3821.000000	100.656639
3820.000000	100.656775
3819.000000	100.656741
3818.000000	100.656487
3817.000000	100.656258
3816.000000	100.656118
3815.000000	100.655753
3814.000000	100.654943
3813.000000	100.653864
3812.000000	100.652800
3811.000000	100.651833
3810.000000	100.650876
3809.000000	100.649896
3808.000000	100.649074
3807.000000	100.648645
3806.000000	100.648574
3805.000000	100.648583
3804.000000	100.648465
3803.000000	100.648234
3802.000000	100.647975
3801.000000	100.647616
3800.000000	100.647010
3799.000000	100.646185
3798.000000	100.645306
3797.000000	100.644572
3796.000000	100.644069
3795.000000	100.643750
3794.000000	100.643477
3793.000000	100.643121
3792.000000	100.642656
3791.000000	100.642107
3790.000000	100.641503
3789.000000	100.640863
3788.000000	100.640211
3787.000000	100.639593
3786.000000	100.639058
3785.000000	100.638610
3784.000000	100.638179
3783.000000	100.637663
3782.000000	100.637033
3781.000000	100.636402
3780.000000	100.635946
3779.000000	100.635710
3778.000000	100.635496
3777.000000	100.635050
3776.000000	100.634322
3775.000000	100.633509
3774.000000	100.632824
3773.000000	100.632251
3772.000000	100.631552
3771.000000	100.630511
3770.000000	100.629210
3769.000000	100.627976
3768.000000	100.627012
3767.000000	100.626286
3766.000000	100.625892
3765.000000	100.626218
3764.000000	100.627530
3763.000000	100.629438
3762.000000	100.630892
3761.000000	100.630532
3760.000000	100.627467
3759.000000	100.622540
3758.000000	100.618400
3757.000000	100.617349
3756.000000	100.619434
3755.000000	100.622722
3754.000000	100.625029
3753.000000	100.625301
3752.000000	100.624020
3751.000000	100.622913
3750.000000	100.623635
3749.000000	100.626266
3748.000000	100.629379
3747.000000	100.631247
3746.000000	100.631464
3745.000000	100.632049
3744.000000	100.634175
3743.000000	100.634691
3742.000000	100.630900
3741.000000	100.624203
3740.000000	100.617572
3739.000000	100.612766
3738.000000	100.609879
3737.000000	100.608307
3736.000000	100.607462
3735.000000	100.607154
3734.000000	100.608129
3733.000000	100.611663
3732.000000	100.617665
3731.000000	100.623667
3730.000000	100.626357
3729.000000	100.623792
3728.000000	100.616429
3727.000000	100.606726
3726.000000	100.597473
3725.000000	100.590320
3724.000000	100.585774
3723.000000	100.583342
3722.000000	100.581374
3721.000000	100.577580
3720.000000	100.570538
3719.000000	100.561266
3718.000000	100.552659
3717.000000	100.546466
3716.000000	100.541372
3715.000000	100.534810
3714.000000	100.526605
3713.000000	100.520228
3712.000000	100.518883
3711.000000	100.520074
3710.000000	100.517232
3709.000000	100.507372
3708.000000	100.493867
3707.000000	100.481861
3706.000000	100.473175
3705.000000	100.465686
3704.000000	100.456347
3703.000000	100.444722
3702.000000	100.433816
3701.000000	100.427000
3700.000000	100.424118
3699.000000	100.421823
3698.000000	100.417330
3697.000000	100.410753
3696.000000	100.404343
3695.000000	100.400423
3694.000000	100.399845
3693.000000	100.401300
3692.000000	100.401574
3691.000000	100.397523
3690.000000	100.389378
3689.000000	100.381602
3688.000000	100.377917
3687.000000	100.376692
3686.000000	100.373658
3685.000000	100.366567
3684.000000	100.356100
3683.000000	100.344450
3682.000000	100.333770
3681.000000	100.325485
3680.000000	100.319467
3679.000000	100.313156
3678.000000	100.303375
3677.000000	100.290710
3676.000000	100.280396
3675.000000	100.274423
3674.000000	100.267093
3673.000000	100.253424
3672.000000	100.234811
3671.000000	100.216444
3670.000000	100.200604
3669.000000	100.183256
3668.000000	100.160477
3667.000000	100.134374
3666.000000	100.110449
3665.000000	100.092052
3664.000000	100.078253
3663.000000	100.066174
3662.000000	100.054043
3661.000000	100.041881
3660.000000	100.030014
3659.000000	100.018007
3658.000000	100.005288
3657.000000	99.992023
3656.000000	99.978330
3655.000000	99.963469
3654.000000	99.947137
3653.000000	99.930542
3652.000000	99.915128
3651.000000	99.900549
3650.000000	99.884555
3649.000000	99.866168
3648.000000	99.848038
3647.000000	99.832886
3646.000000	99.819797
3645.000000	99.805698
3644.000000	99.789185
3643.000000	99.772189
3642.000000	99.757943
3641.000000	99.747455
3640.000000	99.738755
3639.000000	99.729358
3638.000000	99.718149
3637.000000	99.704956
3636.000000	99.689923
3635.000000	99.673874
3634.000000	99.657753
3633.000000	99.641025
3632.000000	99.622218
3631.000000	99.602501
3630.000000	99.588506
3629.000000	99.586226
3628.000000	99.590230
3627.000000	99.589790
3626.000000	99.583136
3625.000000	99.576174
3624.000000	99.572820
3623.000000	99.571390
3622.000000	99.568851
3621.000000	99.566686
3620.000000	99.570300
3619.000000	99.582143
3618.000000	99.598222
3617.000000	99.613672
3616.000000	99.628373
3615.000000	99.644905
3614.000000	99.663308
3613.000000	99.679777
3612.000000	99.690580
3611.000000	99.695818
3610.000000	99.698849
3609.000000	99.702920
3608.000000	99.709063
3607.000000	99.717052
3606.000000	99.726790
3605.000000	99.737811
3604.000000	99.748201
3603.000000	99.755661
3602.000000	99.760258
3601.000000	99.765308
3600.000000	99.773837
3599.000000	99.784984
3598.000000	99.794839
3597.000000	99.800454
3596.000000	99.802867
3595.000000	99.806070
3594.000000	99.812688
3593.000000	99.821371
3592.000000	99.828740
3591.000000	99.832951
3590.000000	99.835501
3589.000000	99.839803
3588.000000	99.847097
3587.000000	99.853424
3586.000000	99.853180
3585.000000	99.845535
3584.000000	99.835107
3583.000000	99.827184
3582.000000	99.823405
3581.000000	99.821659
3580.000000	99.819401
3579.000000	99.816375
3578.000000	99.813873
3577.000000	99.812063
3576.000000	99.809228
3575.000000	99.803999
3574.000000	99.797487
3573.000000	99.792712
3572.000000	99.792149
3571.000000	99.795848
3570.000000	99.801476
3569.000000	99.805852
3568.000000	99.807040
3567.000000	99.805575
3566.000000	99.803220
3565.000000	99.800532
3564.000000	99.796539
3563.000000	99.790544
3562.000000	99.783399
3561.000000	99.776804
3560.000000	99.771578
3559.000000	99.767117
3558.000000	99.762700
3557.000000	99.758663
3556.000000	99.755941
3555.000000	99.755014
3554.000000	99.755575
3553.000000	99.756719
3552.000000	99.757302
3551.000000	99.756551
3550.000000	99.754642
3549.000000	99.752351
3548.000000	99.749971
3547.000000	99.746939
3546.000000	99.742938
3545.000000	99.738955
3544.000000	99.736743
3543.000000	99.737408
3542.000000	99.740631
3541.000000	99.744840
3540.000000	99.747779
3539.000000	99.747539
3538.000000	99.743775
3537.000000	99.738138
3536.000000	99.733110
3535.000000	99.729960
3534.000000	99.728073
3533.000000	99.726102
3532.000000	99.723471
3531.000000	99.720880
3530.000000	99.719741
3529.000000	99.721053
3528.000000	99.724425
3527.000000	99.728074
3526.000000	99.730258
3525.000000	99.730829
3524.000000	99.731152
3523.000000	99.732523
3522.000000	99.734925
3521.000000	99.737310
3520.000000	99.738719
3519.000000	99.738943
3518.000000	99.738427
3517.000000	99.737779
3516.000000	99.737303
3515.000000	99.736837
3514.000000	99.735999
3513.000000	99.734626
3512.000000	99.732992
3511.000000	99.731737
3510.000000	99.731669
3509.000000	99.733381
3508.000000	99.736627
3507.000000	99.740104
3506.000000	99.742327
3505.000000	99.742867
3504.000000	99.742514
3503.000000	99.742031
3502.000000	99.741078
3501.000000	99.738795
3500.000000	99.735079
3499.000000	99.730788
3498.000000	99.726957
3497.000000	99.724345
3496.000000	99.723646
3495.000000	99.725382
3494.000000	99.729153
3493.000000	99.733255
3492.000000	99.735665
3491.000000	99.735561
3490.000000	99.733774
3489.000000	99.731902
3488.000000	99.730984
3487.000000	99.730898
3486.000000	99.730715
3485.000000	99.729442
3484.000000	99.726692
3483.000000	99.723033
3482.000000	99.719731
3481.000000	99.717688
3480.000000	99.716543
3479.000000	99.714989
3478.000000	99.712065
3477.000000	99.708088
3476.000000	99.704393
3475.000000	99.702335
3474.000000	99.702513
3473.000000	99.704600
3472.000000	99.707422
3471.000000	99.709415
3470.000000	99.709562
3469.000000	99.708015
3468.000000	99.705752
3467.000000	99.703518
3466.000000	99.701259
3465.000000	99.698736
3464.000000	99.696243
3463.000000	99.694349
3462.000000	99.693094
3461.000000	99.691843
3460.000000	99.689986
3459.000000	99.687548
3458.000000	99.684960
3457.000000	99.682361
3456.000000	99.679321
3455.000000	99.675366
3454.000000	99.670757
3453.000000	99.666676
3452.000000	99.664357
3451.000000	99.663947
3450.000000	99.664166
3449.000000	99.663309
3448.000000	99.660784
3447.000000	99.657557
3446.000000	99.655084
3445.000000	99.653849
3444.000000	99.653056
3443.000000	99.651550
3442.000000	99.648961
3441.000000	99.646048
3440.000000	99.644025
3439.000000	99.643448
3438.000000	99.643609
3437.000000	99.643024
3436.000000	99.640714
3435.000000	99.637027
3434.000000	99.633252
3433.000000	99.630401
3432.000000	99.628393
3431.000000	99.626429
3430.000000	99.623981
3429.000000	99.621329
3428.000000	99.619097
3427.000000	99.617388
3426.000000	99.615517
3425.000000	99.612737
3424.000000	99.609203
3423.000000	99.606014
3422.000000	99.604056
3421.000000	99.602910
3420.000000	99.601183
3419.000000	99.598150
3418.000000	99.594891
3417.000000	99.593441
3416.000000	99.594744
3415.000000	99.597635
3414.000000	99.599783
3413.000000	99.599935
3412.000000	99.599233
3411.000000	99.599939
3410.000000	99.602816
3409.000000	99.606037
3408.000000	99.606997
3407.000000	99.605165
3406.000000	99.602636
3405.000000	99.601914
3404.000000	99.603596
3403.000000	99.606461
3402.000000	99.609027
3401.000000	99.610530
3400.000000	99.610703
3399.000000	99.609603
3398.000000	99.607959
3397.000000	99.607047
3396.000000	99.607695
3395.000000	99.609570
3394.000000	99.611680
3393.000000	99.613479
3392.000000	99.615331
3391.000000	99.617969
3390.000000	99.621599
3389.000000	99.625467
3388.000000	99.628295
3387.000000	99.629260
3386.000000	99.628593
3385.000000	99.627243
3384.000000	99.626038
3383.000000	99.625355
3382.000000	99.625542
3381.000000	99.627032
3380.000000	99.629768
3379.000000	99.632860
3378.000000	99.635250
3377.000000	99.636785
3376.000000	99.638363
3375.000000	99.640965
3374.000000	99.644738
3373.000000	99.648891
3372.000000	99.652250
3371.000000	99.654206
3370.000000	99.655162
3369.000000	99.656136
3368.000000	99.657769
3367.000000	99.659778
3366.000000	99.661521
3365.000000	99.662867
3364.000000	99.664270
3363.000000	99.666082
3362.000000	99.668139
3361.000000	99.670044
3360.000000	99.671612
3359.000000	99.672972
3358.000000	99.674393
3357.000000	99.676084
3356.000000	99.678077
3355.000000	99.680237
3354.000000	99.682389
3353.000000	99.684437
3352.000000	99.686385
3351.000000	99.688275
3350.000000	99.690136
3349.000000	99.691990
3348.000000	99.693855
3347.000000	99.695733
3346.000000	99.697622
3345.000000	99.699521
3344.000000	99.701435
3343.000000	99.703365
3342.000000	99.705303
3341.000000	99.707245
3340.000000	99.709193
3339.000000	99.711147
3338.000000	99.713102
3337.000000	99.715050
3336.000000	99.716986
3335.000000	99.718912
3334.000000	99.720832
3333.000000	99.722751
3332.000000	99.724669
3331.000000	99.726579
3330.000000	99.728478
3329.000000	99.730369
3328.000000	99.732264
3327.000000	99.734178
3326.000000	99.736120
3325.000000	99.738091
3324.000000	99.740081
3323.000000	99.742081
3322.000000	99.744086
3321.000000	99.746081
3320.000000	99.748059
3319.000000	99.750034
3318.000000	99.752029
3317.000000	99.754050
3316.000000	99.756086
3315.000000	99.758128
3314.000000	99.760190
3313.000000	99.762305
3312.000000	99.764531
3311.000000	99.766924
3310.000000	99.769465
3309.000000	99.772034
3308.000000	99.774508
3307.000000	99.776913
3306.000000	99.779429
3305.000000	99.782158
3304.000000	99.784911
3303.000000	99.787261
3302.000000	99.788909
3301.000000	99.789976
3300.000000	99.790949
3299.000000	99.792261
3298.000000	99.793888
3297.000000	99.795478
3296.000000	99.796927
3295.000000	99.798616
3294.000000	99.800874
3293.000000	99.803378
3292.000000	99.805460
3291.000000	99.807036
3290.000000	99.808777
3289.000000	99.811129
3288.000000	99.813619
3287.000000	99.815505
3286.000000	99.816912
3285.000000	99.818825
3284.000000	99.821925
3283.000000	99.825776
3282.000000	99.829249
3281.000000	99.831592
3280.000000	99.832877
3279.000000	99.833734
3278.000000	99.834857
3277.000000	99.836727
3276.000000	99.839576
3275.000000	99.843332
3274.000000	99.847453
3273.000000	99.850978
3272.000000	99.853118
3271.000000	99.853984
3270.000000	99.854660
3269.000000	99.856180
3268.000000	99.858367
3267.000000	99.860052
3266.000000	99.860498
3265.000000	99.860316
3264.000000	99.860896
3263.000000	99.862947
3262.000000	99.865758
3261.000000	99.867834
3260.000000	99.868225
3259.000000	99.867236
3258.000000	99.866141
3257.000000	99.866210
3256.000000	99.867826
3255.000000	99.870411
3254.000000	99.873011
3253.000000	99.875053
3252.000000	99.876628
3251.000000	99.878162
3250.000000	99.879911
3249.000000	99.881775
3248.000000	99.883482
3247.000000	99.884901
3246.000000	99.886223
3245.000000	99.887880
3244.000000	99.890251
3243.000000	99.893372
3242.000000	99.896850
3241.000000	99.900083
3240.000000	99.902639
3239.000000	99.904428
3238.000000	99.905581
3237.000000	99.906249
3236.000000	99.906587
3235.000000	99.906891
3234.000000	99.907590
3233.000000	99.909054
3232.000000	99.911401
3231.000000	99.914462
3230.000000	99.917835
3229.000000	99.920989
3228.000000	99.923516
3227.000000	99.925378
3226.000000	99.926889
3225.000000	99.928475
3224.000000	99.930364
3223.000000	99.932576
3222.000000	99.935098
3221.000000	99.937930
3220.000000	99.940944
3219.000000	99.943852
3218.000000	99.946429
3217.000000	99.948708
3216.000000	99.950948
3215.000000	99.953395
3214.000000	99.956063
3213.000000	99.958777
3212.000000	99.961349
3211.000000	99.963725
3210.000000	99.965990
3209.000000	99.968325
3208.000000	99.970876
3207.000000	99.973657
3206.000000	99.976551
3205.000000	99.979421
3204.000000	99.982220
3203.000000	99.984972
3202.000000	99.987695
3201.000000	99.990366
3200.000000	99.992956
3199.000000	99.995480
3198.000000	99.997997
3197.000000	100.000562
3196.000000	100.003187
3195.000000	100.005851
3194.000000	100.008517
3193.000000	100.011159
3192.000000	100.013773
3191.000000	100.016371
3190.000000	100.018964
3189.000000	100.021547
3188.000000	100.024106
3187.000000	100.026624
3186.000000	100.029100
3185.000000	100.031557
3184.000000	100.034026
3183.000000	100.036515
3182.000000	100.039017
3181.000000	100.041517
3180.000000	100.044005
3179.000000	100.046475
3178.000000	100.048922
3177.000000	100.051338
3176.000000	100.053718
3175.000000	100.056074
3174.000000	100.058428
3173.000000	100.060798
3172.000000	100.063183
3171.000000	100.065574
3170.000000	100.067961
3169.000000	100.070298
3168.000000	100.072526
3167.000000	100.074648
3166.000000	100.076720
3165.000000	100.078804
3164.000000	100.080915
3163.000000	100.083041
3162.000000	100.085160
3161.000000	100.087265
3160.000000	100.089372
3159.000000	100.091493
3158.000000	100.093623
3157.000000	100.095750
3156.000000	100.097870
3155.000000	100.099986
3154.000000	100.102103
3153.000000	100.104217
3152.000000	100.106319
3151.000000	100.108406
3150.000000	100.110477
3149.000000	100.112535
3148.000000	100.114585
3147.000000	100.116627
3146.000000	100.118663
3145.000000	100.120693
3144.000000	100.122717
3143.000000	100.124735
3142.000000	100.126744
3141.000000	100.128743
3140.000000	100.130730
3139.000000	100.132707
3138.000000	100.134674
3137.000000	100.136635
3136.000000	100.138591
3135.000000	100.140541
3134.000000	100.142481
3133.000000	100.144405
3132.000000	100.146313
3131.000000	100.148210
3130.000000	100.150104
3129.000000	100.152003
3128.000000	100.153915
3127.000000	100.155841
3126.000000	100.157782
3125.000000	100.159742
3124.000000	100.161719
3123.000000	100.163709
3122.000000	100.165706
3121.000000	100.167704
3120.000000	100.169702
3119.000000	100.171695
3118.000000	100.173676
3117.000000	100.175640
3116.000000	100.177585
3115.000000	100.179517
3114.000000	100.181442
3113.000000	100.183365
3112.000000	100.185286
3111.000000	100.187205
3110.000000	100.189120
3109.000000	100.191024
3108.000000	100.192907
3107.000000	100.194766
3106.000000	100.196620
3105.000000	100.198517
3104.000000	100.200511
3103.000000	100.202595
3102.000000	100.204679
3101.000000	100.206668
3100.000000	100.208566
3099.000000	100.210467
3098.000000	100.212436
3097.000000	100.214414
3096.000000	100.216288
3095.000000	100.217997
3094.000000	100.219593
3093.000000	100.221238
3092.000000	100.223112
3091.000000	100.225223
3090.000000	100.227316
3089.000000	100.229105
3088.000000	100.230646
3087.000000	100.232338
3086.000000	100.234513
3085.000000	100.237098
3084.000000	100.239677
3083.000000	100.241764
3082.000000	100.243074
3081.000000	100.243772
3080.000000	100.244453
3079.000000	100.245598
3078.000000	100.246996
3077.000000	100.247970
3076.000000	100.248281
3075.000000	100.248532
3074.000000	100.249511
3073.000000	100.251374
3072.000000	100.253769
3071.000000	100.256466
3070.000000	100.259396
3069.000000	100.262227
3068.000000	100.264444
3067.000000	100.265972
3066.000000	100.267362
3065.000000	100.269035
3064.000000	100.270587
3063.000000	100.271237
3062.000000	100.270758
3061.000000	100.269747
3060.000000	100.269122
3059.000000	100.269439
3058.000000	100.270698
3057.000000	100.272518
3056.000000	100.274427
3055.000000	100.276154
3054.000000	100.277767
3053.000000	100.279495
3052.000000	100.281379
3051.000000	100.283229
3050.000000	100.284894
3049.000000	100.286403
3048.000000	100.287770
3047.000000	100.288807
3046.000000	100.289347
3045.000000	100.289562
3044.000000	100.289889
3043.000000	100.290629
3042.000000	100.291732
3041.000000	100.292948
3040.000000	100.294071
3039.000000	100.295056
3038.000000	100.296023
3037.000000	100.297161
3036.000000	100.298499
3035.000000	100.299793
3034.000000	100.300768
3033.000000	100.301525
3032.000000	100.302538
3031.000000	100.304178
3030.000000	100.306314
3029.000000	100.308403
3028.000000	100.309998
3027.000000	100.311018
3026.000000	100.311530
3025.000000	100.311548
3024.000000	100.311205
3023.000000	100.310979
3022.000000	100.311455
3021.000000	100.312882
3020.000000	100.315027
3019.000000	100.317369
3018.000000	100.319459
3017.000000	100.321144
3016.000000	100.322547
3015.000000	100.323845
3014.000000	100.324947
3013.000000	100.325507
3012.000000	100.325479
3011.000000	100.325591
3010.000000	100.326822
3009.000000	100.329428
3008.000000	100.332684
3007.000000	100.335515
3006.000000	100.337429
3005.000000	100.338722
3004.000000	100.340057
3003.000000	100.341930
3002.000000	100.344302
3001.000000	100.346615
3000.000000	100.348319
2999.000000	100.349487
2998.000000	100.350771
2997.000000	100.352627
2996.000000	100.354785
2995.000000	100.356613
2994.000000	100.357840
2993.000000	100.358715
2992.000000	100.359603
2991.000000	100.360710
2990.000000	100.362207
2989.000000	100.364244
2988.000000	100.366748
2987.000000	100.369506
2986.000000	100.372608
2985.000000	100.376460
2984.000000	100.381184
2983.000000	100.386249
2982.000000	100.390936
2981.000000	100.394996
2980.000000	100.398584
2979.000000	100.401618
2978.000000	100.403563
2977.000000	100.403931
2976.000000	100.402897
2975.000000	100.401520
2974.000000	100.401416
2973.000000	100.404091
2972.000000	100.410177
2971.000000	100.418786
2970.000000	100.427480
2969.000000	100.433488
2968.000000	100.435477
2967.000000	100.434493
2966.000000	100.433276
2965.000000	100.434395
2964.000000	100.438960
2963.000000	100.446605
2962.000000	100.455908
2961.000000	100.464795
2960.000000	100.471221
2959.000000	100.473979
2958.000000	100.472757
2957.000000	100.467732
2956.000000	100.460125
2955.000000	100.453118
2954.000000	100.450548
2953.000000	100.453539
2952.000000	100.459434
2951.000000	100.465141
2950.000000	100.470618
2949.000000	100.477404
2948.000000	100.484732
2947.000000	100.489629
2946.000000	100.491036
2945.000000	100.491532
2944.000000	100.494174
2943.000000	100.499523
2942.000000	100.506814
2941.000000	100.516267
2940.000000	100.528457
2939.000000	100.542258
2938.000000	100.555205
2937.000000	100.565863
2936.000000	100.574785
2935.000000	100.583295
2934.000000	100.592333
2933.000000	100.602465
2932.000000	100.613954
2931.000000	100.626197
2930.000000	100.637473
2929.000000	100.645938
2928.000000	100.651389
2927.000000	100.655965
2926.000000	100.662254
2925.000000	100.669960
2924.000000	100.675359
2923.000000	100.675264
2922.000000	100.670829
2921.000000	100.665929
2920.000000	100.662245
2919.000000	100.658218
2918.000000	100.652809
2917.000000	100.647296
2916.000000	100.642132
2915.000000	100.634757
2914.000000	100.622901
2913.000000	100.608437
2912.000000	100.595427
2911.000000	100.584934
2910.000000	100.574243
2909.000000	100.561293
2908.000000	100.547924
2907.000000	100.538096
2906.000000	100.534069
2905.000000	100.534652
2904.000000	100.536170
2903.000000	100.534786
2902.000000	100.529139
2901.000000	100.521236
2900.000000	100.514692
2899.000000	100.512046
2898.000000	100.513941
2897.000000	100.519938
2896.000000	100.528406
2895.000000	100.535607
2894.000000	100.537035
2893.000000	100.531389
2892.000000	100.522582
2891.000000	100.516439
2890.000000	100.515144
2889.000000	100.515685
2888.000000	100.513852
2887.000000	100.509087
2886.000000	100.504731
2885.000000	100.503942
2884.000000	100.506504
2883.000000	100.509980
2882.000000	100.513017
2881.000000	100.516274
2880.000000	100.520262
2879.000000	100.523770
2878.000000	100.525401
2877.000000	100.525721
2876.000000	100.526464
2875.000000	100.527936
2874.000000	100.528722
2873.000000	100.528385
2872.000000	100.528966
2871.000000	100.532527
2870.000000	100.537901
2869.000000	100.541557
2868.000000	100.542144
2867.000000	100.542641
2866.000000	100.546646
2865.000000	100.553350
2864.000000	100.558244
2863.000000	100.559361
2862.000000	100.560705
2861.000000	100.567624
2860.000000	100.579822
2859.000000	100.591451
2858.000000	100.598287
2857.000000	100.602346
2856.000000	100.608505
2855.000000	100.618179
2854.000000	100.627898
2853.000000	100.633247
2852.000000	100.632323
2851.000000	100.625850
2850.000000	100.615841
2849.000000	100.604680
2848.000000	100.594440
2847.000000	100.585862
2846.000000	100.577957
2845.000000	100.569485
2844.000000	100.561145
2843.000000	100.555653
2842.000000	100.554740
2841.000000	100.556152
2840.000000	100.554943
2839.000000	100.548817
2838.000000	100.541298
2837.000000	100.538082
2836.000000	100.540576
2835.000000	100.544572
2834.000000	100.545299
2833.000000	100.542225
2832.000000	100.538353
2831.000000	100.536407
2830.000000	100.536761
2829.000000	100.537975
2828.000000	100.538096
2827.000000	100.535998
2826.000000	100.532245
2825.000000	100.528382
2824.000000	100.525217
2823.000000	100.522702
2822.000000	100.521552
2821.000000	100.523233
2820.000000	100.527381
2819.000000	100.530802
2818.000000	100.530637
2817.000000	100.527638
2816.000000	100.524874
2815.000000	100.523950
2814.000000	100.523950
2813.000000	100.523497
2812.000000	100.522422
2811.000000	100.521579
2810.000000	100.522107
2809.000000	100.524760
2808.000000	100.529145
2807.000000	100.533455
2806.000000	100.535677
2805.000000	100.535398
2804.000000	100.533987
2803.000000	100.533106
2802.000000	100.533125
2801.000000	100.533338
2800.000000	100.533262
2799.000000	100.533228
2798.000000	100.533859
2797.000000	100.535371
2796.000000	100.537339
2795.000000	100.538989
2794.000000	100.539841
2793.000000	100.540167
2792.000000	100.540755
2791.000000	100.542166
2790.000000	100.544314
2789.000000	100.546700
2788.000000	100.548762
2787.000000	100.550029
2786.000000	100.550290
2785.000000	100.549805
2784.000000	100.549215
2783.000000	100.549051
2782.000000	100.549413
2781.000000	100.550134
2780.000000	100.550978
2779.000000	100.551677
2778.000000	100.552059
2777.000000	100.552233
2776.000000	100.552544
2775.000000	100.553225
2774.000000	100.554165
2773.000000	100.555069
2772.000000	100.555719
2771.000000	100.556107
2770.000000	100.556349
2769.000000	100.556589
2768.000000	100.556898
2767.000000	100.557245
2766.000000	100.557560
2765.000000	100.557823
2764.000000	100.558102
2763.000000	100.558477
2762.000000	100.558918
2761.000000	100.559325
2760.000000	100.559647
2759.000000	100.559909
2758.000000	100.560140
2757.000000	100.560333
2756.000000	100.560491
2755.000000	100.560642
2754.000000	100.560816
2753.000000	100.561009
2752.000000	100.561211
2751.000000	100.561433
2750.000000	100.561699
2749.000000	100.562011
2748.000000	100.562335
2747.000000	100.562621
2746.000000	100.562841
2745.000000	100.562996
2744.000000	100.563104
2743.000000	100.563190
2742.000000	100.563292
2741.000000	100.563473
2740.000000	100.563827
2739.000000	100.564418
2738.000000	100.565169
2737.000000	100.565841
2736.000000	100.566211
2735.000000	100.566222
2734.000000	100.566032
2733.000000	100.565856
2732.000000	100.565833
2731.000000	100.566003
2730.000000	100.566331
2729.000000	100.566801
2728.000000	100.567487
2727.000000	100.568449
2726.000000	100.569565
2725.000000	100.570557
2724.000000	100.571250
2723.000000	100.571693
2722.000000	100.571978
2721.000000	100.572086
2720.000000	100.572033
2719.000000	100.572048
2718.000000	100.572417
2717.000000	100.573189
2716.000000	100.574120
2715.000000	100.574911
2714.000000	100.575426
2713.000000	100.575758
2712.000000	100.576105
2711.000000	100.576571
2710.000000	100.577056
2709.000000	100.577386
2708.000000	100.577542
2707.000000	100.577661
2706.000000	100.577812
2705.000000	100.577925
2704.000000	100.578035
2703.000000	100.578442
2702.000000	100.579441
2701.000000	100.580998
2700.000000	100.582785
2699.000000	100.584390
2698.000000	100.585468
2697.000000	100.585863
2696.000000	100.585698
2695.000000	100.585341
2694.000000	100.585205
2693.000000	100.585449
2692.000000	100.585983
2691.000000	100.586676
2690.000000	100.587472
2689.000000	100.588331
2688.000000	100.589171
2687.000000	100.589917
2686.000000	100.590545
2685.000000	100.591083
2684.000000	100.591556
2683.000000	100.591965
2682.000000	100.592285
2681.000000	100.592492
2680.000000	100.592608
2679.000000	100.592808
2678.000000	100.593399
2677.000000	100.594526
2676.000000	100.595820
2675.000000	100.596565
2674.000000	100.596304
2673.000000	100.595289
2672.000000	100.594465
2671.000000	100.594763
2670.000000	100.596301
2669.000000	100.598401
2668.000000	100.600445
2667.000000	100.602254
2666.000000	100.603439
2665.000000	100.603007
2664.000000	100.600172
2663.000000	100.595459
2662.000000	100.590714
2661.000000	100.588101
2660.000000	100.589198
2659.000000	100.594496
2658.000000	100.602798
2657.000000	100.611053
2656.000000	100.615827
2655.000000	100.615562
2654.000000	100.611539
2653.000000	100.606717
2652.000000	100.603537
2651.000000	100.602680
2650.000000	100.603382
2649.000000	100.604700
2648.000000	100.606639
2647.000000	100.609899
2646.000000	100.614112
2645.000000	100.616696
2644.000000	100.614516
2643.000000	100.606904
2642.000000	100.596261
2641.000000	100.585356
2640.000000	100.575145
2639.000000	100.566236
2638.000000	100.561405
2637.000000	100.564637
2636.000000	100.577330
2635.000000	100.596400
2634.000000	100.616520
2633.000000	100.633799
2632.000000	100.646799
2631.000000	100.654888
2630.000000	100.657013
2629.000000	100.652337
2628.000000	100.641395
2627.000000	100.625924
2626.000000	100.607677
2625.000000	100.588140
2624.000000	100.569853
2623.000000	100.557266
2622.000000	100.554885
2621.000000	100.563917
2620.000000	100.581078
2619.000000	100.601016
2618.000000	100.619670
2617.000000	100.634675
2616.000000	100.643705
2615.000000	100.644672
2614.000000	100.638038
2613.000000	100.627477
2612.000000	100.617053
2611.000000	100.608187
2610.000000	100.600241
2609.000000	100.593255
2608.000000	100.588789
2607.000000	100.588251
2606.000000	100.591412
2605.000000	100.596619
2604.000000	100.601927
2603.000000	100.606135
2602.000000	100.609391
2601.000000	100.612721
2600.000000	100.616446
2599.000000	100.619255
2598.000000	100.619607
2597.000000	100.617873
2596.000000	100.616103
2595.000000	100.615480
2594.000000	100.615007
2593.000000	100.613164
2592.000000	100.609962
2591.000000	100.606642
2590.000000	100.604030
2589.000000	100.602055
2588.000000	100.600494
2587.000000	100.599411
2586.000000	100.598988
2585.000000	100.599448
2584.000000	100.601073
2583.000000	100.603692
2582.000000	100.606321
2581.000000	100.607990
2580.000000	100.608787
2579.000000	100.609449
2578.000000	100.610128
2577.000000	100.610317
2576.000000	100.609945
2575.000000	100.609639
2574.000000	100.609728
2573.000000	100.609798
2572.000000	100.609573
2571.000000	100.609486
2570.000000	100.609997
2569.000000	100.610935
2568.000000	100.611796
2567.000000	100.612403
2566.000000	100.612953
2565.000000	100.613554
2564.000000	100.614117
2563.000000	100.614589
2562.000000	100.615023
2561.000000	100.615435
2560.000000	100.615757
2559.000000	100.615962
2558.000000	100.616115
2557.000000	100.616302
2556.000000	100.616563
2555.000000	100.616881
2554.000000	100.617227
2553.000000	100.617585
2552.000000	100.617950
2551.000000	100.618323
2550.000000	100.618710
2549.000000	100.619118
2548.000000	100.619541
2547.000000	100.619968
2546.000000	100.620396
2545.000000	100.620832
2544.000000	100.621290
2543.000000	100.621773
2542.000000	100.622268
2541.000000	100.622758
2540.000000	100.623232
2539.000000	100.623688
2538.000000	100.624128
2537.000000	100.624553
2536.000000	100.624965
2535.000000	100.625369
2534.000000	100.625768
2533.000000	100.626165
2532.000000	100.626559
2531.000000	100.626950
2530.000000	100.627342
2529.000000	100.627732
2528.000000	100.628118
2527.000000	100.628501
2526.000000	100.628886
2525.000000	100.629274
2524.000000	100.629661
2523.000000	100.630037
2522.000000	100.630403
2521.000000	100.630762
2520.000000	100.631123
2519.000000	100.631482
2518.000000	100.631837
2517.000000	100.632191
2516.000000	100.632552
2515.000000	100.632929
2514.000000	100.633317
2513.000000	100.633707
2512.000000	100.634092
2511.000000	100.634472
2510.000000	100.634851
2509.000000	100.635231
2508.000000	100.635607
2507.000000	100.635976
2506.000000	100.636337
2505.000000	100.636693
2504.000000	100.637048
2503.000000	100.637396
2502.000000	100.637728
2501.000000	100.638040
2500.000000	100.638334
2499.000000	100.638622
2498.000000	100.638913
2497.000000	100.639209
2496.000000	100.639508
2495.000000	100.639806
2494.000000	100.640101
2493.000000	100.640397
2492.000000	100.640698
2491.000000	100.641004
2490.000000	100.641313
2489.000000	100.641625
2488.000000	100.641939
2487.000000	100.642255
2486.000000	100.642572
2485.000000	100.642886
2484.000000	100.643191
2483.000000	100.643486
2482.000000	100.643777
2481.000000	100.644074
2480.000000	100.644390
2479.000000	100.644727
2478.000000	100.645086
2477.000000	100.645464
2476.000000	100.645855
2475.000000	100.646247
2474.000000	100.646629
2473.000000	100.646991
2472.000000	100.647334
2471.000000	100.647665
2470.000000	100.647992
2469.000000	100.648319
2468.000000	100.648646
2467.000000	100.648976
2466.000000	100.649311
2465.000000	100.649648
2464.000000	100.649980
2463.000000	100.650301
2462.000000	100.650610
2461.000000	100.650911
2460.000000	100.651209
2459.000000	100.651507
2458.000000	100.651803
2457.000000	100.652091
2456.000000	100.652365
2455.000000	100.652623
2454.000000	100.652875
2453.000000	100.653137
2452.000000	100.653419
2451.000000	100.653721
2450.000000	100.654030
2449.000000	100.654331
2448.000000	100.654616
2447.000000	100.654887
2446.000000	100.655145
2445.000000	100.655389
2444.000000	100.655615
2443.000000	100.655823
2442.000000	100.656020
2441.000000	100.656213
2440.000000	100.656405
2439.000000	100.656596
2438.000000	100.656780
2437.000000	100.656948
2436.000000	100.657093
2435.000000	100.657212
2434.000000	100.657306
2433.000000	100.657376
2432.000000	100.657428
2431.000000	100.657470
2430.000000	100.657511
2429.000000	100.657566
2428.000000	100.657658
2427.000000	100.657797
2426.000000	100.657958
2425.000000	100.658091
2424.000000	100.658163
2423.000000	100.658194
2422.000000	100.658252
2421.000000	100.658390
2420.000000	100.658593
2419.000000	100.658798
2418.000000	100.658967
2417.000000	100.659107
2416.000000	100.659243
2415.000000	100.659397
2414.000000	100.659605
2413.000000	100.659891
2412.000000	100.660200
2411.000000	100.660396
2410.000000	100.660403
2409.000000	100.660268
2408.000000	100.660131
2407.000000	100.660083
2406.000000	100.660127
2405.000000	100.660230
2404.000000	100.660352
2403.000000	100.660459
2402.000000	100.660532
2401.000000	100.660586
2400.000000	100.660674
2399.000000	100.660833
2398.000000	100.661045
2397.000000	100.661243
2396.000000	100.661372
2395.000000	100.661435
2394.000000	100.661477
2393.000000	100.661537
2392.000000	100.661616
2391.000000	100.661695
2390.000000	100.661766
2389.000000	100.661836
2388.000000	100.661911
2387.000000	100.661989
2386.000000	100.662066
2385.000000	100.662140
2384.000000	100.662214
2383.000000	100.662294
2382.000000	100.662381
2381.000000	100.662468
2380.000000	100.662546
2379.000000	100.662606
2378.000000	100.662649
2377.000000	100.662682
2376.000000	100.662715
2375.000000	100.662756
2374.000000	100.662806
2373.000000	100.662864
2372.000000	100.662922
2371.000000	100.662975
2370.000000	100.663021
2369.000000	100.663068
2368.000000	100.663125
2367.000000	100.663198
2366.000000	100.663285
2365.000000	100.663383
2364.000000	100.663490
2363.000000	100.663603
2362.000000	100.663718
2361.000000	100.663830
2360.000000	100.663940
2359.000000	100.664049
2358.000000	100.664158
2357.000000	100.664269
2356.000000	100.664380
2355.000000	100.664489
2354.000000	100.664600
2353.000000	100.664717
2352.000000	100.664847
2351.000000	100.664990
2350.000000	100.665139
2349.000000	100.665291
2348.000000	100.665445
2347.000000	100.665606
2346.000000	100.665777
2345.000000	100.665954
2344.000000	100.666130
2343.000000	100.666301
2342.000000	100.666461
2341.000000	100.666606
2340.000000	100.666733
2339.000000	100.666844
2338.000000	100.666949
2337.000000	100.667059
2336.000000	100.667179
2335.000000	100.667303
2334.000000	100.667421
2333.000000	100.667523
2332.000000	100.667606
2331.000000	100.667674
2330.000000	100.667737
2329.000000	100.667808
2328.000000	100.667892
2327.000000	100.667983
2326.000000	100.668065
2325.000000	100.668126
2324.000000	100.668165
2323.000000	100.668189
2322.000000	100.668201
2321.000000	100.668205
2320.000000	100.668198
2319.000000	100.668184
2318.000000	100.668160
2317.000000	100.668124
2316.000000	100.668073
2315.000000	100.668008
2314.000000	100.667932
2313.000000	100.667851
2312.000000	100.667767
2311.000000	100.667679
2310.000000	100.667578
2309.000000	100.667455
2308.000000	100.667303
2307.000000	100.667124
2306.000000	100.666925
2305.000000	100.666711
2304.000000	100.666481
2303.000000	100.666236
2302.000000	100.665973
2301.000000	100.665695
2300.000000	100.665402
2299.000000	100.665095
2298.000000	100.664772
2297.000000	100.664433
2296.000000	100.664081
2295.000000	100.663718
2294.000000	100.663344
2293.000000	100.662958
2292.000000	100.662560
2291.000000	100.662152
2290.000000	100.661737
2289.000000	100.661321
2288.000000	100.660908
2287.000000	100.660494
2286.000000	100.660072
2285.000000	100.659638
2284.000000	100.659193
2283.000000	100.658747
2282.000000	100.658305
2281.000000	100.657857
2280.000000	100.657380
2279.000000	100.656864
2278.000000	100.656327
2277.000000	100.655798
2276.000000	100.655295
2275.000000	100.654826
2274.000000	100.654415
2273.000000	100.654086
2272.000000	100.653789
2271.000000	100.653368
2270.000000	100.652688
2269.000000	100.651767
2268.000000	100.650814
2267.000000	100.650024
2266.000000	100.649427
2265.000000	100.648945
2264.000000	100.648537
2263.000000	100.648252
2262.000000	100.648096
2261.000000	100.647954
2260.000000	100.647687
2259.000000	100.647240
2258.000000	100.646668
2257.000000	100.646074
2256.000000	100.645551
2255.000000	100.645160
2254.000000	100.644932
2253.000000	100.644845
2252.000000	100.644805
2251.000000	100.644693
2250.000000	100.644475
2249.000000	100.644253
2248.000000	100.644179
2247.000000	100.644279
2246.000000	100.644386
2245.000000	100.644267
2244.000000	100.643828
2243.000000	100.643181
2242.000000	100.642588
2241.000000	100.642258
2240.000000	100.642211
2239.000000	100.642311
2238.000000	100.642419
2237.000000	100.642515
2236.000000	100.642645
2235.000000	100.642818
2234.000000	100.642987
2233.000000	100.643111
2232.000000	100.643214
2231.000000	100.643361
2230.000000	100.643586
2229.000000	100.643861
2228.000000	100.644124
2227.000000	100.644339
2226.000000	100.644527
2225.000000	100.644726
2224.000000	100.644966
2223.000000	100.645244
2222.000000	100.645541
2221.000000	100.645846
2220.000000	100.646150
2219.000000	100.646455
2218.000000	100.646765
2217.000000	100.647080
2216.000000	100.647398
2215.000000	100.647707
2214.000000	100.647997
2213.000000	100.648265
2212.000000	100.648513
2211.000000	100.648741
2210.000000	100.648952
2209.000000	100.649158
2208.000000	100.649371
2207.000000	100.649599
2206.000000	100.649836
2205.000000	100.650066
2204.000000	100.650277
2203.000000	100.650472
2202.000000	100.650667
2201.000000	100.650884
2200.000000	100.651129
2199.000000	100.651383
2198.000000	100.651614
2197.000000	100.651804
2196.000000	100.651956
2195.000000	100.652069
2194.000000	100.652134
2193.000000	100.652162
2192.000000	100.652234
2191.000000	100.652449
2190.000000	100.652782
2189.000000	100.653056
2188.000000	100.653138
2187.000000	100.653093
2186.000000	100.653067
2185.000000	100.653102
2184.000000	100.653120
2183.000000	100.653044
2182.000000	100.652888
2181.000000	100.652775
2180.000000	100.652838
2179.000000	100.653014
2178.000000	100.653018
2177.000000	100.652638
2176.000000	100.651944
2175.000000	100.651221
2174.000000	100.650720
2173.000000	100.650495
2172.000000	100.650468
2171.000000	100.650546
2170.000000	100.650672
2169.000000	100.650800
2168.000000	100.650881
2167.000000	100.650874
2166.000000	100.650777
2165.000000	100.650629
2164.000000	100.650482
2163.000000	100.650373
2162.000000	100.650311
2161.000000	100.650278
2160.000000	100.650249
2159.000000	100.650202
2158.000000	100.650140
2157.000000	100.650083
2156.000000	100.650048
2155.000000	100.650037
2154.000000	100.650050
2153.000000	100.650090
2152.000000	100.650160
2151.000000	100.650254
2150.000000	100.650363
2149.000000	100.650489
2148.000000	100.650630
2147.000000	100.650780
2146.000000	100.650930
2145.000000	100.651079
2144.000000	100.651231
2143.000000	100.651394
2142.000000	100.651574
2141.000000	100.651771
2140.000000	100.651978
2139.000000	100.652189
2138.000000	100.652403
2137.000000	100.652625
2136.000000	100.652867
2135.000000	100.653134
2134.000000	100.653424
2133.000000	100.653727
2132.000000	100.654034
2131.000000	100.654339
2130.000000	100.654641
2129.000000	100.654941
2128.000000	100.655242
2127.000000	100.655547
2126.000000	100.655859
2125.000000	100.656178
2124.000000	100.656501
2123.000000	100.656829
2122.000000	100.657160
2121.000000	100.657497
2120.000000	100.657840
2119.000000	100.658185
2118.000000	100.658526
2117.000000	100.658860
2116.000000	100.659183
2115.000000	100.659500
2114.000000	100.659812
2113.000000	100.660121
2112.000000	100.660425
2111.000000	100.660717
2110.000000	100.660992
2109.000000	100.661249
2108.000000	100.661490
2107.000000	100.661721
2106.000000	100.661942
2105.000000	100.662154
2104.000000	100.662363
2103.000000	100.662577
2102.000000	100.662797
2101.000000	100.663021
2100.000000	100.663243
2099.000000	100.663464
2098.000000	100.663687
2097.000000	100.663910
2096.000000	100.664124
2095.000000	100.664321
2094.000000	100.664503
2093.000000	100.664673
2092.000000	100.664828
2091.000000	100.664961
2090.000000	100.665074
2089.000000	100.665184
2088.000000	100.665303
2087.000000	100.665431
2086.000000	100.665552
2085.000000	100.665633
2084.000000	100.665642
2083.000000	100.665573
2082.000000	100.665472
2081.000000	100.665428
2080.000000	100.665505
2079.000000	100.665674
2078.000000	100.665826
2077.000000	100.665894
2076.000000	100.665910
2075.000000	100.665910
2074.000000	100.665883
2073.000000	100.665867
2072.000000	100.665969
2071.000000	100.666166
2070.000000	100.666175
2069.000000	100.665786
2068.000000	100.665248
2067.000000	100.665078
2066.000000	100.665388
2065.000000	100.665682
2064.000000	100.665488
2063.000000	100.664956
2062.000000	100.664617
2061.000000	100.664716
2060.000000	100.665009
2059.000000	100.665099
2058.000000	100.664789
2057.000000	100.664215
2056.000000	100.663788
2055.000000	100.663842
2054.000000	100.664229
2053.000000	100.664440
2052.000000	100.664170
2051.000000	100.663487
2050.000000	100.662477
2049.000000	100.661178
2048.000000	100.659898
2047.000000	100.659062
2046.000000	100.658556
2045.000000	100.657800
2044.000000	100.656740
2043.000000	100.656149
2042.000000	100.656469
2041.000000	100.656827
2040.000000	100.656012
2039.000000	100.654117
2038.000000	100.652384
2037.000000	100.651369
2036.000000	100.650138
2035.000000	100.647677
2034.000000	100.644316
2033.000000	100.641308
2032.000000	100.639394
2031.000000	100.638373
2030.000000	100.637756
2029.000000	100.637381
2028.000000	100.637399
2027.000000	100.637916
2026.000000	100.638654
2025.000000	100.639000
2024.000000	100.638559
2023.000000	100.637675
2022.000000	100.637035
2021.000000	100.636651
2020.000000	100.635653
2019.000000	100.633402
2018.000000	100.630515
2017.000000	100.628407
2016.000000	100.627815
2015.000000	100.628177
2014.000000	100.628394
2013.000000	100.627813
2012.000000	100.626479
2011.000000	100.624864
2010.000000	100.623517
2009.000000	100.622736
2008.000000	100.622393
2007.000000	100.622082
2006.000000	100.621417
2005.000000	100.620179
2004.000000	100.618276
2003.000000	100.615864
2002.000000	100.613521
2001.000000	100.612023
2000.000000	100.611749
1999.000000	100.612380
1998.000000	100.613290
1997.000000	100.614173
1996.000000	100.615148
1995.000000	100.616319
1994.000000	100.617454
1993.000000	100.618130
1992.000000	100.618131
1991.000000	100.617623
1990.000000	100.616999
1989.000000	100.616615
1988.000000	100.616619
1987.000000	100.616944
1986.000000	100.617385
1985.000000	100.617725
1984.000000	100.617823
1983.000000	100.617649
1982.000000	100.617280
1981.000000	100.616881
1980.000000	100.616619
1979.000000	100.616567
1978.000000	100.616688
1977.000000	100.616918
1976.000000	100.617201
1975.000000	100.617464
1974.000000	100.617603
1973.000000	100.617592
1972.000000	100.617528
1971.000000	100.617546
1970.000000	100.617670
1969.000000	100.617822
1968.000000	100.617917
1967.000000	100.617951
1966.000000	100.617958
1965.000000	100.617981
1964.000000	100.618027
1963.000000	100.618082
1962.000000	100.618123
1961.000000	100.618139
1960.000000	100.618144
1959.000000	100.618154
1958.000000	100.618174
1957.000000	100.618185
1956.000000	100.618146
1955.000000	100.618021
1954.000000	100.617838
1953.000000	100.617714
1952.000000	100.617726
1951.000000	100.617772
1950.000000	100.617706
1949.000000	100.617598
1948.000000	100.617636
1947.000000	100.617711
1946.000000	100.617454
1945.000000	100.616854
1944.000000	100.616539
1943.000000	100.617088
1942.000000	100.618156
1941.000000	100.618725
1940.000000	100.618211
1939.000000	100.616778
1938.000000	100.614815
1937.000000	100.612667
1936.000000	100.610780
1935.000000	100.609664
1934.000000	100.609509
1933.000000	100.609876
1932.000000	100.609830
1931.000000	100.608648
1930.000000	100.606543
1929.000000	100.604764
1928.000000	100.604486
1927.000000	100.605502
1926.000000	100.606344
1925.000000	100.605831
1924.000000	100.604319
1923.000000	100.603098
1922.000000	100.602551
1921.000000	100.601724
1920.000000	100.599790
1919.000000	100.597120
1918.000000	100.594867
1917.000000	100.593555
1916.000000	100.592415
1915.000000	100.590287
1914.000000	100.586713
1913.000000	100.582229
1912.000000	100.577994
1911.000000	100.575079
1910.000000	100.573832
1909.000000	100.573749
1908.000000	100.573733
1907.000000	100.572714
1906.000000	100.570239
1905.000000	100.566581
1904.000000	100.562506
1903.000000	100.558679
1902.000000	100.555155
1901.000000	100.551646
1900.000000	100.548252
1899.000000	100.545633
1898.000000	100.544233
1897.000000	100.543355
1896.000000	100.541426
1895.000000	100.537416
1894.000000	100.531955
1893.000000	100.526873
1892.000000	100.523717
1891.000000	100.522732
1890.000000	100.522733
1889.000000	100.521741
1888.000000	100.518546
1887.000000	100.514091
1886.000000	100.510768
1885.000000	100.510068
1884.000000	100.511040
1883.000000	100.511403
1882.000000	100.510180
1881.000000	100.508598
1880.000000	100.508159
1879.000000	100.508489
1878.000000	100.507820
1877.000000	100.505105
1876.000000	100.500878
1875.000000	100.496375
1874.000000	100.492788
1873.000000	100.491492
1872.000000	100.493852
1871.000000	100.499901
1870.000000	100.507134
1869.000000	100.511517
1868.000000	100.510983
1867.000000	100.507371
1866.000000	100.504150
1865.000000	100.503194
1864.000000	100.504069
1863.000000	100.505347
1862.000000	100.506176
1861.000000	100.506914
1860.000000	100.508617
1859.000000	100.512046
1858.000000	100.517054
1857.000000	100.522734
1856.000000	100.528266
1855.000000	100.533716
1854.000000	100.539527
1853.000000	100.545674
1852.000000	100.551670
1851.000000	100.557059
1850.000000	100.561820
1849.000000	100.566064
1848.000000	100.569669
1847.000000	100.572293
1846.000000	100.573782
1845.000000	100.574630
1844.000000	100.575791
1843.000000	100.577398
1842.000000	100.578131
1841.000000	100.576813
1840.000000	100.573994
1839.000000	100.571848
1838.000000	100.572645
1837.000000	100.576915
1836.000000	100.583114
1835.000000	100.588691
1834.000000	100.591545
1833.000000	100.591171
1832.000000	100.588525
1831.000000	100.585135
1830.000000	100.582914
1829.000000	100.583389
1828.000000	100.586469
1827.000000	100.590511
1826.000000	100.593273
1825.000000	100.593509
1824.000000	100.592280
1823.000000	100.591507
1822.000000	100.591429
1821.000000	100.590670
1820.000000	100.588425
1819.000000	100.585853
1818.000000	100.584884
1817.000000	100.585734
1816.000000	100.586495
1815.000000	100.585285
1814.000000	100.582175
1813.000000	100.578743
1812.000000	100.576247
1811.000000	100.574737
1810.000000	100.573778
1809.000000	100.573372
1808.000000	100.573766
1807.000000	100.574925
1806.000000	100.576577
1805.000000	100.578368
1804.000000	100.579925
1803.000000	100.580911
1802.000000	100.581258
1801.000000	100.581219
1800.000000	100.580717
1799.000000	100.579246
1798.000000	100.576809
1797.000000	100.574519
1796.000000	100.573987
1795.000000	100.576201
1794.000000	100.580768
1793.000000	100.585595
1792.000000	100.587927
1791.000000	100.586947
1790.000000	100.584540
1789.000000	100.583178
1788.000000	100.583839
1787.000000	100.585798
1786.000000	100.587579
1785.000000	100.588300
1784.000000	100.588402
1783.000000	100.588922
1782.000000	100.590534
1781.000000	100.593347
1780.000000	100.596576
1779.000000	100.598978
1778.000000	100.600136
1777.000000	100.601048
1776.000000	100.603021
1775.000000	100.606180
1774.000000	100.609288
1773.000000	100.611289
1772.000000	100.613032
1771.000000	100.615766
1770.000000	100.618932
1769.000000	100.621715
1768.000000	100.624782
1767.000000	100.628914
1766.000000	100.633381
1765.000000	100.636612
1764.000000	100.637864
1763.000000	100.637783
1762.000000	100.638234
1761.000000	100.640993
1760.000000	100.645859
1759.000000	100.650831
1758.000000	100.653522
1757.000000	100.653044
1756.000000	100.651052
1755.000000	100.649812
1754.000000	100.649972
1753.000000	100.651475
1752.000000	100.654860
1751.000000	100.660267
1750.000000	100.665709
1749.000000	100.668388
1748.000000	100.668068
1747.000000	100.666485
1746.000000	100.664675
1745.000000	100.662744
1744.000000	100.661439
1743.000000	100.662246
1742.000000	100.665262
1741.000000	100.668485
1740.000000	100.670008
1739.000000	100.669987
1738.000000	100.669173
1737.000000	100.667135
1736.000000	100.662862
1735.000000	100.655526
1734.000000	100.646375
1733.000000	100.639346
1732.000000	100.636514
1731.000000	100.636746
1730.000000	100.637906
1729.000000	100.637728
1728.000000	100.635208
1727.000000	100.631344
1726.000000	100.628284
1725.000000	100.626836
1724.000000	100.625706
1723.000000	100.623658
1722.000000	100.621098
1721.000000	100.619089
1720.000000	100.617876
1719.000000	100.616657
1718.000000	100.614758
1717.000000	100.612758
1716.000000	100.611089
1715.000000	100.609263
1714.000000	100.606721
1713.000000	100.603059
1712.000000	100.598564
1711.000000	100.594345
1710.000000	100.591394
1709.000000	100.589786
1708.000000	100.588448
1707.000000	100.586118
1706.000000	100.583132
1705.000000	100.581035
1704.000000	100.579576
1703.000000	100.576990
1702.000000	100.572510
1701.000000	100.566237
1700.000000	100.558885
1699.000000	100.550821
1698.000000	100.541134
1697.000000	100.529910
1696.000000	100.520173
1695.000000	100.514545
1694.000000	100.512124
1693.000000	100.510335
1692.000000	100.507867
1691.000000	100.505258
1690.000000	100.502678
1689.000000	100.498973
1688.000000	100.492972
1687.000000	100.484589
1686.000000	100.474459
1685.000000	100.462997
1684.000000	100.453695
1683.000000	100.449619
1682.000000	100.447825
1681.000000	100.445395
1680.000000	100.443031
1679.000000	100.441555
1678.000000	100.440172
1677.000000	100.437504
1676.000000	100.434251
1675.000000	100.432388
1674.000000	100.431499
1673.000000	100.428810
1672.000000	100.422936
1671.000000	100.415322
1670.000000	100.408635
1669.000000	100.403825
1668.000000	100.400103
1667.000000	100.397778
1666.000000	100.397684
1665.000000	100.398982
1664.000000	100.399203
1663.000000	100.396372
1662.000000	100.391010
1661.000000	100.384937
1660.000000	100.379237
1659.000000	100.374585
1658.000000	100.371944
1657.000000	100.371079
1656.000000	100.370949
1655.000000	100.370862
1654.000000	100.369638
1653.000000	100.364159
1652.000000	100.354622
1651.000000	100.346986
1650.000000	100.341956
1649.000000	100.335576
1648.000000	100.327586
1647.000000	100.322966
1646.000000	100.323951
1645.000000	100.326298
1644.000000	100.326687
1643.000000	100.325615
1642.000000	100.324338
1641.000000	100.324164
1640.000000	100.324632
1639.000000	100.323871
1638.000000	100.320746
1637.000000	100.315915
1636.000000	100.312129
1635.000000	100.311690
1634.000000	100.313507
1633.000000	100.315753
1632.000000	100.318242
1631.000000	100.321648
1630.000000	100.326108
1629.000000	100.329856
1628.000000	100.331493
1627.000000	100.332292
1626.000000	100.334416
1625.000000	100.338106
1624.000000	100.341696
1623.000000	100.344532
1622.000000	100.347818
1621.000000	100.352270
1620.000000	100.356944
1619.000000	100.360622
1618.000000	100.363181
1617.000000	100.365383
1616.000000	100.368753
1615.000000	100.374883
1614.000000	100.383959
1613.000000	100.395399
1612.000000	100.408751
1611.000000	100.422270
1610.000000	100.432621
1609.000000	100.437953
1608.000000	100.440128
1607.000000	100.442519
1606.000000	100.446485
1605.000000	100.451608
1604.000000	100.457918
1603.000000	100.466208
1602.000000	100.476143
1601.000000	100.485753
1600.000000	100.493717
1599.000000	100.500598
1598.000000	100.507028
1597.000000	100.511948
1596.000000	100.513996
1595.000000	100.514370
1594.000000	100.516707
1593.000000	100.523279
1592.000000	100.532555
1591.000000	100.541026
1590.000000	100.546618
1589.000000	100.550076
1588.000000	100.553570
1587.000000	100.558635
1586.000000	100.565113
1585.000000	100.571745
1584.000000	100.577378
1583.000000	100.581612
1582.000000	100.585245
1581.000000	100.589617
1580.000000	100.594708
1579.000000	100.598321
1578.000000	100.598150
1577.000000	100.594925
1576.000000	100.594197
1575.000000	100.600511
1574.000000	100.610671
1573.000000	100.618681
1572.000000	100.622491
1571.000000	100.623894
1570.000000	100.625775
1569.000000	100.629027
1568.000000	100.632070
1567.000000	100.633600
1566.000000	100.634080
1565.000000	100.634781
1564.000000	100.637132
1563.000000	100.641214
1562.000000	100.646813
1561.000000	100.655107
1560.000000	100.663493
1559.000000	100.669019
1558.000000	100.671584
1557.000000	100.669055
1556.000000	100.664466
1555.000000	100.662042
1554.000000	100.662088
1553.000000	100.664206
1552.000000	100.666524
1551.000000	100.668085
1550.000000	100.668581
1549.000000	100.668274
1548.000000	100.667452
1547.000000	100.666207
1546.000000	100.664219
1545.000000	100.661956
1544.000000	100.661306
1543.000000	100.663159
1542.000000	100.665346
1541.000000	100.664048
1540.000000	100.657454
1539.000000	100.646779
1538.000000	100.635363
1537.000000	100.625674
1536.000000	100.616930
1535.000000	100.607689
1534.000000	100.597581
1533.000000	100.586785
1532.000000	100.575516
1531.000000	100.564891
1530.000000	100.557500
1529.000000	100.554406
1528.000000	100.553813
1527.000000	100.552950
1526.000000	100.550535
1525.000000	100.547156
1524.000000	100.543513
1523.000000	100.539946
1522.000000	100.537722
1521.000000	100.538023
1520.000000	100.539511
1519.000000	100.540174
1518.000000	100.539476
1517.000000	100.537643
1516.000000	100.534150
1515.000000	100.528109
1514.000000	100.520835
1513.000000	100.515510
1512.000000	100.513883
1511.000000	100.514168
1510.000000	100.512296
1509.000000	100.505708
1508.000000	100.495184
1507.000000	100.486819
1506.000000	100.484467
1505.000000	100.484088
1504.000000	100.483421
1503.000000	100.482680
1502.000000	100.481660
1501.000000	100.480663
1500.000000	100.479251
1499.000000	100.476600
1498.000000	100.473089
1497.000000	100.470840
1496.000000	100.470814
1495.000000	100.471346
1494.000000	100.470950
1493.000000	100.469776
1492.000000	100.468225
1491.000000	100.465934
1490.000000	100.462601
1489.000000	100.458759
1488.000000	100.454261
1487.000000	100.448959
1486.000000	100.444160
1485.000000	100.441356
1484.000000	100.440840
1483.000000	100.441581
1482.000000	100.442352
1481.000000	100.442539
1480.000000	100.442105
1479.000000	100.441377
1478.000000	100.441102
1477.000000	100.441746
1476.000000	100.442330
1475.000000	100.441147
1474.000000	100.438764
1473.000000	100.439909
1472.000000	100.447993
1471.000000	100.458950
1470.000000	100.467123
1469.000000	100.471781
1468.000000	100.474922
1467.000000	100.478024
1466.000000	100.480742
1465.000000	100.481768
1464.000000	100.479985
1463.000000	100.475553
1462.000000	100.470424
1461.000000	100.466883
1460.000000	100.466166
1459.000000	100.467709
1458.000000	100.468611
1457.000000	100.465587
1456.000000	100.459411
1455.000000	100.454106
1454.000000	100.451508
1453.000000	100.451109
1452.000000	100.452453
1451.000000	100.455083
1450.000000	100.457914
1449.000000	100.459738
1448.000000	100.459286
1447.000000	100.455493
1446.000000	100.448788
1445.000000	100.441614
1444.000000	100.435820
1443.000000	100.431179
1442.000000	100.426982
1441.000000	100.423992
1440.000000	100.423442
1439.000000	100.424763
1438.000000	100.425411
1437.000000	100.423740
1436.000000	100.421928
1435.000000	100.422331
1434.000000	100.424358
1433.000000	100.427116
1432.000000	100.430529
1431.000000	100.433875
1430.000000	100.435651
1429.000000	100.435899
1428.000000	100.436963
1427.000000	100.440301
1426.000000	100.444071
1425.000000	100.445157
1424.000000	100.443127
1423.000000	100.441073
1422.000000	100.442364
1421.000000	100.448502
1420.000000	100.458337
1419.000000	100.467333
1418.000000	100.471288
1417.000000	100.470907
1416.000000	100.469584
1415.000000	100.469335
1414.000000	100.470393
1413.000000	100.472916
1412.000000	100.477703
1411.000000	100.484868
1410.000000	100.492926
1409.000000	100.500329
1408.000000	100.506711
1407.000000	100.511979
1406.000000	100.515658
1405.000000	100.518394
1404.000000	100.522528
1403.000000	100.529642
1402.000000	100.539036
1401.000000	100.548826
1400.000000	100.556856
1399.000000	100.561461
1398.000000	100.562924
1397.000000	100.563835
1396.000000	100.567164
1395.000000	100.573388
1394.000000	100.579922
1393.000000	100.585339
1392.000000	100.592087
1391.000000	100.602634
1390.000000	100.615691
1389.000000	100.627173
1388.000000	100.634169
1387.000000	100.637758
1386.000000	100.640771
1385.000000	100.643737
1384.000000	100.645264
1383.000000	100.645021
1382.000000	100.644637
1381.000000	100.645790
1380.000000	100.648239
1379.000000	100.650593
1378.000000	100.652299
1377.000000	100.653833
1376.000000	100.655307
1375.000000	100.656086
1374.000000	100.656124
1373.000000	100.656625
1372.000000	100.658895
1371.000000	100.663051
1370.000000	100.667508
1369.000000	100.669812
1368.000000	100.668847
1367.000000	100.666052
1366.000000	100.663953
1365.000000	100.663536
1364.000000	100.663475
1363.000000	100.662422
1362.000000	100.661425
1361.000000	100.662320
1360.000000	100.664530
1359.000000	100.665532
1358.000000	100.664158
1357.000000	100.662356
1356.000000	100.663113
1355.000000	100.666848
1354.000000	100.670865
1353.000000	100.672329
1352.000000	100.670664
1351.000000	100.667220
1350.000000	100.663792
1349.000000	100.661712
1348.000000	100.661694
1347.000000	100.663671
1346.000000	100.666655
1345.000000	100.669138
1344.000000	100.670003
1343.000000	100.669107
1342.000000	100.667067
1341.000000	100.664621
1340.000000	100.662306
1339.000000	100.660584
1338.000000	100.659923
1337.000000	100.660664
1336.000000	100.662664
1335.000000	100.665203
1334.000000	100.667611
1333.000000	100.669681
1332.000000	100.670999
1331.000000	100.670404
1330.000000	100.667116
1329.000000	100.662401
1328.000000	100.659224
1327.000000	100.659771
1326.000000	100.663661
1325.000000	100.668612
1324.000000	100.672325
1323.000000	100.673406
1322.000000	100.671489
1321.000000	100.667514
1320.000000	100.663602
1319.000000	100.661758
1318.000000	100.662514
1317.000000	100.665124
1316.000000	100.668475
1315.000000	100.671126
1314.000000	100.671351
1313.000000	100.668495
1312.000000	100.664142
1311.000000	100.660870
1310.000000	100.659941
1309.000000	100.660998
1308.000000	100.663431
1307.000000	100.666810
1306.000000	100.670111
1305.000000	100.671847
1304.000000	100.671453
1303.000000	100.669724
1302.000000	100.667750
1301.000000	100.666194
1300.000000	100.665614
1299.000000	100.666263
1298.000000	100.667238
1297.000000	100.667076
1296.000000	100.665936
1295.000000	100.666009
1294.000000	100.668633
1293.000000	100.671933
1292.000000	100.672682
1291.000000	100.669841
1290.000000	100.664893
1289.000000	100.659096
1288.000000	100.652188
1287.000000	100.644153
1286.000000	100.636380
1285.000000	100.630071
1284.000000	100.624883
1283.000000	100.620401
1282.000000	100.617940
1281.000000	100.619198
1280.000000	100.623486
1279.000000	100.627967
1278.000000	100.630729
1277.000000	100.632060
1276.000000	100.632440
1275.000000	100.631414
1274.000000	100.629454
1273.000000	100.628875
1272.000000	100.630921
1271.000000	100.633244
1270.000000	100.632623
1269.000000	100.629375
1268.000000	100.626611
1267.000000	100.625830
1266.000000	100.626128
1265.000000	100.627520
1264.000000	100.631395
1263.000000	100.636778
1262.000000	100.639728
1261.000000	100.638381
1260.000000	100.635642
1259.000000	100.634441
1258.000000	100.632871
1257.000000	100.626968
1256.000000	100.616268
1255.000000	100.603566
1254.000000	100.590550
1253.000000	100.576789
1252.000000	100.562520
1251.000000	100.549441
1250.000000	100.538562
1249.000000	100.529498
1248.000000	100.521670
1247.000000	100.513819
1246.000000	100.502717
1245.000000	100.485464
1244.000000	100.463642
1243.000000	100.442638
1242.000000	100.425602
1241.000000	100.409890
1240.000000	100.390656
1239.000000	100.366560
1238.000000	100.341091
1237.000000	100.319185
1236.000000	100.302953
1235.000000	100.289865
1234.000000	100.274853
1233.000000	100.254718
1232.000000	100.230105
1231.000000	100.202859
1230.000000	100.172982
1229.000000	100.139625
1228.000000	100.103318
1227.000000	100.064588
1226.000000	100.021468
1225.000000	99.971452
1224.000000	99.915542
1223.000000	99.857177
1222.000000	99.796912
1221.000000	99.731197
1220.000000	99.656976
1219.000000	99.574622
1218.000000	99.485871
1217.000000	99.392055
1216.000000	99.295442
1215.000000	99.199061
1214.000000	99.103253
1213.000000	99.004926
1212.000000	98.901872
1211.000000	98.795570
1210.000000	98.688615
1209.000000	98.581914
1208.000000	98.475696
1207.000000	98.370740
1206.000000	98.267473
1205.000000	98.166118
1204.000000	98.067881
1203.000000	97.973136
1202.000000	97.878651
1201.000000	97.780281
1200.000000	97.678807
1199.000000	97.579491
1198.000000	97.485412
1197.000000	97.394793
1196.000000	97.304866
1195.000000	97.214091
1194.000000	97.120482
1193.000000	97.022302
1192.000000	96.921035
1191.000000	96.819533
1190.000000	96.717003
1189.000000	96.610269
1188.000000	96.500172
1187.000000	96.391632
1186.000000	96.286531
1185.000000	96.181314
1184.000000	96.072422
1183.000000	95.959291
1182.000000	95.841567
1181.000000	95.718629
1180.000000	95.592636
1179.000000	95.466736
1178.000000	95.339396
1177.000000	95.205928
1176.000000	95.066158
1175.000000	94.924613
1174.000000	94.782439
1173.000000	94.635863
1172.000000	94.484176
1171.000000	94.332278
1170.000000	94.183263
1169.000000	94.035322
1168.000000	93.888656
1167.000000	93.749537
1166.000000	93.625871
1165.000000	93.525383
1164.000000	93.459358
1163.000000	93.439343
1162.000000	93.465523
1161.000000	93.522863
1160.000000	93.590029
1159.000000	93.647424
1158.000000	93.678236
1157.000000	93.671230
1156.000000	93.625762
1155.000000	93.549213
1154.000000	93.448495
1153.000000	93.328765
1152.000000	93.199293
1151.000000	93.071838
1150.000000	92.950587
1149.000000	92.830584
1148.000000	92.708128
1147.000000	92.586038
1146.000000	92.467563
1145.000000	92.352620
1144.000000	92.241637
1143.000000	92.135568
1142.000000	92.030514
1141.000000	91.919969
1140.000000	91.803915
1139.000000	91.688267
1138.000000	91.574385
1137.000000	91.457070
1136.000000	91.333621
1135.000000	91.206239
1134.000000	91.074883
1133.000000	90.937285
1132.000000	90.797318
1131.000000	90.663492
1130.000000	90.536906
1129.000000	90.409686
1128.000000	90.276879
1127.000000	90.140691
1126.000000	90.002525
1125.000000	89.861460
1124.000000	89.721725
1123.000000	89.590270
1122.000000	89.464808
1121.000000	89.335308
1120.000000	89.199143
1119.000000	89.063331
1118.000000	88.930621
1117.000000	88.796489
1116.000000	88.661556
1115.000000	88.532981
1114.000000	88.410686
1113.000000	88.286248
1112.000000	88.158594
1111.000000	88.036714
1110.000000	87.923996
1109.000000	87.814115
1108.000000	87.704824
1107.000000	87.601371
1106.000000	87.503630
1105.000000	87.404123
1104.000000	87.301431
1103.000000	87.201800
1102.000000	87.105685
1101.000000	87.007134
1100.000000	86.907272
1099.000000	86.812788
1098.000000	86.720741
1097.000000	86.621410
1096.000000	86.517619
1095.000000	86.423400
1094.000000	86.341650
1093.000000	86.261217
1092.000000	86.178350
1091.000000	86.101902
1090.000000	86.033858
1089.000000	85.964157
1088.000000	85.889801
1087.000000	85.820783
1086.000000	85.761997
1085.000000	85.706766
1084.000000	85.652908
1083.000000	85.607414
1082.000000	85.570181
1081.000000	85.530323
1080.000000	85.483563
1079.000000	85.436899
1078.000000	85.392248
1077.000000	85.342265
1076.000000	85.285441
1075.000000	85.227017
1074.000000	85.161069
1073.000000	85.070215
1072.000000	84.947703
1071.000000	84.802616
1070.000000	84.639612
1069.000000	84.451078
1068.000000	84.233979
1067.000000	83.996962
1066.000000	83.746026
1065.000000	83.480711
1064.000000	83.209517
1063.000000	82.950483
1062.000000	82.710151
1061.000000	82.479572
1060.000000	82.255932
1059.000000	82.049105
1058.000000	81.861706
1057.000000	81.681897
1056.000000	81.501152
1055.000000	81.320012
1054.000000	81.131982
1053.000000	80.922749
1052.000000	80.692082
1051.000000	80.455693
1050.000000	80.218468
1049.000000	79.968922
1048.000000	79.705680
1047.000000	79.442405
1046.000000	79.181032
1045.000000	78.907298
1044.000000	78.618526
1043.000000	78.330979
1042.000000	78.053712
1041.000000	77.778828
1040.000000	77.504264
1039.000000	77.242417
1038.000000	76.998389
1037.000000	76.763199
1036.000000	76.536238
1035.000000	76.330799
1034.000000	76.149530
1033.000000	75.978323
1032.000000	75.812671
1031.000000	75.666435
1030.000000	75.546191
1029.000000	75.440440
1028.000000	75.342258
1027.000000	75.259141
1026.000000	75.191744
1025.000000	75.126197
1024.000000	75.056339
1023.000000	74.991587
1022.000000	74.935088
1021.000000	74.876319
1020.000000	74.812175
1019.000000	74.752443
1018.000000	74.697207
1017.000000	74.632278
1016.000000	74.554937
1015.000000	74.481391
1014.000000	74.420427
1013.000000	74.361678
1012.000000	74.297996
1011.000000	74.238175
1010.000000	74.189384
1009.000000	74.147254
1008.000000	74.110516
1007.000000	74.085929
1006.000000	74.072528
1005.000000	74.060272
1004.000000	74.049219
1003.000000	74.050720
1002.000000	74.066166
1001.000000	74.084853
1000.000000	74.105643
999.000000	74.139022
998.000000	74.184499
997.000000	74.228553
996.000000	74.269101
995.000000	74.319978
994.000000	74.386954
993.000000	74.461123
992.000000	74.539634
991.000000	74.630578
990.000000	74.733219
989.000000	74.835920
988.000000	74.938599
987.000000	75.055807
986.000000	75.193110
985.000000	75.341630
984.000000	75.499530
983.000000	75.677203
982.000000	75.877034
981.000000	76.089495
980.000000	76.313318
979.000000	76.558249
978.000000	76.823812
977.000000	77.096493
976.000000	77.372190
975.000000	77.661050
974.000000	77.966078
973.000000	78.277181
972.000000	78.590022
971.000000	78.910680
970.000000	79.237696
969.000000	79.559435
968.000000	79.873833
967.000000	80.192006
966.000000	80.517531
965.000000	80.839307
964.000000	81.148825
963.000000	81.448176
962.000000	81.738341
961.000000	82.016193
960.000000	82.285720
959.000000	82.555837
958.000000	82.824275
957.000000	83.079170
956.000000	83.318198
955.000000	83.550392
954.000000	83.778202
953.000000	83.994523
952.000000	84.198533
951.000000	84.396771
950.000000	84.586544
949.000000	84.756279
948.000000	84.905689
947.000000	85.048807
946.000000	85.193401
945.000000	85.333318
944.000000	85.464611
943.000000	85.592715
942.000000	85.719847
941.000000	85.841302
940.000000	85.958445
939.000000	86.079924
938.000000	86.206041
937.000000	86.327281
936.000000	86.442181
935.000000	86.561114
934.000000	86.688098
933.000000	86.814022
932.000000	86.932474
931.000000	87.047878
930.000000	87.164105
929.000000	87.279507
928.000000	87.396840
927.000000	87.522716
926.000000	87.652584
925.000000	87.771338
924.000000	87.874279
923.000000	87.973721
922.000000	88.079638
921.000000	88.186993
920.000000	88.287279
919.000000	88.379758
918.000000	88.466141
917.000000	88.546364
916.000000	88.624812
915.000000	88.709942
914.000000	88.803949
913.000000	88.903444
912.000000	89.012461
911.000000	89.142638
910.000000	89.298487
909.000000	89.475009
908.000000	89.671022
907.000000	89.890778
906.000000	90.130803
905.000000	90.380169
904.000000	90.636334
903.000000	90.905970
902.000000	91.187775
901.000000	91.469566
900.000000	91.745170
899.000000	92.019122
898.000000	92.291280
897.000000	92.551852
896.000000	92.796219
895.000000	93.030898
894.000000	93.260318
893.000000	93.480912
892.000000	93.692776
891.000000	93.903260
890.000000	94.112524
889.000000	94.308109
888.000000	94.481323
887.000000	94.638697
886.000000	94.790806
885.000000	94.939291
884.000000	95.081482
883.000000	95.218597
882.000000	95.352535
881.000000	95.482660
880.000000	95.611185
879.000000	95.742989
878.000000	95.875357
877.000000	95.998933
876.000000	96.115329
875.000000	96.242262
874.000000	96.392320
873.000000	96.556325
872.000000	96.717134
871.000000	96.871273
870.000000	97.026979
869.000000	97.187243
868.000000	97.345350
867.000000	97.495014
866.000000	97.637124
865.000000	97.776640
864.000000	97.917392
863.000000	98.059705
862.000000	98.200339
861.000000	98.334775
860.000000	98.460221
859.000000	98.575868
858.000000	98.681708
857.000000	98.779713
856.000000	98.874617
855.000000	98.969332
854.000000	99.060283
853.000000	99.141444
852.000000	99.211783
851.000000	99.273951
850.000000	99.327422
849.000000	99.369722
848.000000	99.404222
847.000000	99.439184
846.000000	99.476867
845.000000	99.509266
844.000000	99.526733
843.000000	99.526067
842.000000	99.509343
841.000000	99.480139
840.000000	99.442107
839.000000	99.396330
838.000000	99.339259
837.000000	99.268471
836.000000	99.191143
835.000000	99.121018
834.000000	99.065866
833.000000	99.023755
832.000000	98.992174
831.000000	98.973044
830.000000	98.966652
829.000000	98.968819
828.000000	98.977912
827.000000	98.997394
826.000000	99.027285
825.000000	99.059985
824.000000	99.088848
823.000000	99.114368
822.000000	99.138712
821.000000	99.160634
820.000000	99.177350
819.000000	99.184191
818.000000	99.171288
817.000000	99.127448
816.000000	99.048251
815.000000	98.934161
814.000000	98.779804
813.000000	98.571632
812.000000	98.297457
811.000000	97.951678
810.000000	97.530261
809.000000	97.029304
808.000000	96.452282
807.000000	95.810916
806.000000	95.115373
805.000000	94.374129
804.000000	93.610823
803.000000	92.871489
802.000000	92.205471
801.000000	91.645807
800.000000	91.211935
799.000000	90.916079
798.000000	90.756544
797.000000	90.715955
796.000000	90.774140
795.000000	90.913306
794.000000	91.107948
793.000000	91.324021
792.000000	91.533961
791.000000	91.721987
790.000000	91.872147
789.000000	91.963965
788.000000	91.984661
787.000000	91.934906
786.000000	91.818028
785.000000	91.634018
784.000000	91.390034
783.000000	91.108054
782.000000	90.816815
781.000000	90.544734
780.000000	90.324429
779.000000	90.191277
778.000000	90.167578
777.000000	90.253613
776.000000	90.436040
775.000000	90.694774
774.000000	91.000276
773.000000	91.317860
772.000000	91.621892
771.000000	91.900650
770.000000	92.147873
769.000000	92.358384
768.000000	92.532528
767.000000	92.676059
766.000000	92.793782
765.000000	92.889583
764.000000	92.972109
763.000000	93.052535
762.000000	93.136703
761.000000	93.226332
760.000000	93.325614
759.000000	93.437500
758.000000	93.555667
757.000000	93.670690
756.000000	93.782770
755.000000	93.898320
754.000000	94.016502
753.000000	94.130770
752.000000	94.241875
751.000000	94.356684
750.000000	94.474637
749.000000	94.587911
748.000000	94.695513
747.000000	94.805400
746.000000	94.922300
745.000000	95.045661
744.000000	95.179870
743.000000	95.332417
742.000000	95.499402
741.000000	95.666007
740.000000	95.824458
739.000000	95.979492
738.000000	96.133431
737.000000	96.278130
736.000000	96.405780
735.000000	96.516665
734.000000	96.613148
733.000000	96.696328
732.000000	96.771036
731.000000	96.843680
730.000000	96.911595
729.000000	96.963914
728.000000	96.996847
727.000000	97.020577
726.000000	97.048676
725.000000	97.088258
724.000000	97.142168
723.000000	97.211808
722.000000	97.294392
721.000000	97.384361
720.000000	97.479392
719.000000	97.578643
718.000000	97.675695
717.000000	97.762610
716.000000	97.841719
715.000000	97.923672
714.000000	98.011019
713.000000	98.091669
712.000000	98.151378
711.000000	98.186163
710.000000	98.201605
709.000000	98.207559
708.000000	98.214132
707.000000	98.224016
706.000000	98.226543
705.000000	98.205533
704.000000	98.152179
703.000000	98.061879
702.000000	97.919697
701.000000	97.701339
700.000000	97.392703
699.000000	97.003284
698.000000	96.565666
697.000000	96.135872
696.000000	95.790885
695.000000	95.601252
694.000000	95.590330
693.000000	95.722645
692.000000	95.933205
691.000000	96.166588
690.000000	96.394326
689.000000	96.608895
688.000000	96.809134
687.000000	96.988541
686.000000	97.136503
685.000000	97.253069
684.000000	97.354758
683.000000	97.456084
682.000000	97.551628
681.000000	97.628363
680.000000	97.690662
679.000000	97.757033
678.000000	97.833848
677.000000	97.910301
676.000000	97.978946
675.000000	98.043156
674.000000	98.104540
673.000000	98.160409
672.000000	98.216519
671.000000	98.287127
670.000000	98.378496
669.000000	98.481104
668.000000	98.577115
667.000000	98.650014
666.000000	98.698629
665.000000	98.738989
664.000000	98.783649
663.000000	98.834750
662.000000	98.880250
661.000000	98.903972
660.000000	98.905847
659.000000	98.900667
658.000000	98.893918
657.000000	98.873445
656.000000	98.831543
655.000000	98.780390
654.000000	98.737487
653.000000	98.707085
652.000000	98.685816
651.000000	98.674427
650.000000	98.673814
649.000000	98.682396
648.000000	98.704224
647.000000	98.746186
646.000000	98.804034
645.000000	98.868429
644.000000	98.946515
643.000000	99.054935
642.000000	99.186292
641.000000	99.307655
640.000000	99.401369
639.000000	99.482578
638.000000	99.568537
637.000000	99.652706
636.000000	99.718974
635.000000	99.760775
634.000000	99.779700
633.000000	99.787497
632.000000	99.814878
631.000000	99.893272
630.000000	100.016085
629.000000	100.140917
628.000000	100.239786
627.000000	100.319500
626.000000	100.385640
625.000000	100.420181
624.000000	100.418527
623.000000	100.422975
622.000000	100.485060
621.000000	100.602671
620.000000	100.720697
619.000000	100.783604
618.000000	100.777004
617.000000	100.732877
616.000000	100.701984
615.000000	100.711004
614.000000	100.737896
613.000000	100.739747
612.000000	100.703355
611.000000	100.651569
610.000000	100.603543
609.000000	100.550872
608.000000	100.478998
607.000000	100.389417
606.000000	100.294618
605.000000	100.207404
604.000000	100.136595
603.000000	100.075566
602.000000	100.003604
601.000000	99.924402
600.000000	99.885618
599.000000	99.918750
598.000000	99.975136
597.000000	99.980415
596.000000	99.940099
595.000000	99.924797
594.000000	99.954019
593.000000	99.967796
592.000000	99.930793
591.000000	99.886655
590.000000	99.876564
589.000000	99.881381
588.000000	99.888486
587.000000	99.937226
586.000000	100.046190
585.000000	100.160340
584.000000	100.227416
583.000000	100.268003
582.000000	100.321186
581.000000	100.377918
580.000000	100.424589
579.000000	100.498053
578.000000	100.630632
577.000000	100.786361
576.000000	100.908737
575.000000	100.983575
574.000000	101.015551
573.000000	100.994854
572.000000	100.936551
571.000000	100.902309
570.000000	100.919251
569.000000	100.927655
568.000000	100.872958
567.000000	100.788052
566.000000	100.727131
565.000000	100.676290
564.000000	100.602729
563.000000	100.536674
562.000000	100.534607
561.000000	100.599490
560.000000	100.691121
559.000000	100.759898
558.000000	100.737290
557.000000	100.571019
556.000000	100.313143
555.000000	100.121053
554.000000	100.100004
553.000000	100.206431
552.000000	100.344171
551.000000	100.473164
550.000000	100.590238
