PE IR       SUBTECH     SPECTRUM    ASCII       PEDS        4.00        
   -1
BH1 8-4 13 0_1.asc
24/05/15
13:00:57.00
24/05/15
13:01:36.00
Administrator
?品 066 用? Administrator 日期 Wednesday, May 15 2024
550.000000
#HDR
-1
-1
#GR
cm-1
%T
1.0
0.0
4000.000000
-1.000000
3451
8
100.065591
70.209906
#DATA
4000.000000	99.575193
3999.000000	99.576195
3998.000000	99.576421
3997.000000	99.575780
3996.000000	99.575064
3995.000000	99.575080
3994.000000	99.575808
3993.000000	99.576509
3992.000000	99.576610
3991.000000	99.576375
3990.000000	99.576491
3989.000000	99.576914
3988.000000	99.576507
3987.000000	99.574218
3986.000000	99.570316
3985.000000	99.566428
3984.000000	99.564211
3983.000000	99.564152
3982.000000	99.565630
3981.000000	99.567456
3980.000000	99.568465
3979.000000	99.567982
3978.000000	99.566070
3977.000000	99.563406
3976.000000	99.560799
3975.000000	99.558811
3974.000000	99.557858
3973.000000	99.558255
3972.000000	99.559844
3971.000000	99.561931
3970.000000	99.563871
3969.000000	99.565636
3968.000000	99.567552
3967.000000	99.569568
3966.000000	99.571018
3965.000000	99.571057
3964.000000	99.569307
3963.000000	99.566261
3962.000000	99.563155
3961.000000	99.561122
3960.000000	99.560305
3959.000000	99.560070
3958.000000	99.559933
3957.000000	99.560019
3956.000000	99.560500
3955.000000	99.560985
3954.000000	99.560769
3953.000000	99.559478
3952.000000	99.557406
3951.000000	99.555327
3950.000000	99.553997
3949.000000	99.553698
3948.000000	99.554174
3947.000000	99.554939
3946.000000	99.555570
3945.000000	99.555867
3944.000000	99.555859
3943.000000	99.555748
3942.000000	99.555743
3941.000000	99.555806
3940.000000	99.555642
3939.000000	99.555210
3938.000000	99.554960
3937.000000	99.555346
3936.000000	99.556170
3935.000000	99.556585
3934.000000	99.555959
3933.000000	99.554419
3932.000000	99.552703
3931.000000	99.551515
3930.000000	99.551074
3929.000000	99.551197
3928.000000	99.551402
3927.000000	99.551030
3926.000000	99.549796
3925.000000	99.548469
3924.000000	99.548288
3923.000000	99.549375
3922.000000	99.550506
3921.000000	99.550896
3920.000000	99.551047
3919.000000	99.551587
3918.000000	99.552385
3917.000000	99.553181
3916.000000	99.554070
3915.000000	99.554841
3914.000000	99.554776
3913.000000	99.553911
3912.000000	99.553204
3911.000000	99.553441
3910.000000	99.554276
3909.000000	99.554792
3908.000000	99.554530
3907.000000	99.553561
3906.000000	99.552236
3905.000000	99.550901
3904.000000	99.549975
3903.000000	99.549619
3902.000000	99.549440
3901.000000	99.549055
3900.000000	99.548761
3899.000000	99.549111
3898.000000	99.550016
3897.000000	99.550825
3896.000000	99.551164
3895.000000	99.551301
3894.000000	99.551532
3893.000000	99.551860
3892.000000	99.552159
3891.000000	99.552456
3890.000000	99.552789
3889.000000	99.553058
3888.000000	99.553206
3887.000000	99.553290
3886.000000	99.553370
3885.000000	99.553457
3884.000000	99.553529
3883.000000	99.553565
3882.000000	99.553563
3881.000000	99.553540
3880.000000	99.553514
3879.000000	99.553490
3878.000000	99.553459
3877.000000	99.553406
3876.000000	99.553334
3875.000000	99.553256
3874.000000	99.553187
3873.000000	99.553131
3872.000000	99.553083
3871.000000	99.553048
3870.000000	99.553043
3869.000000	99.553088
3868.000000	99.553177
3867.000000	99.553293
3866.000000	99.553437
3865.000000	99.553628
3864.000000	99.553872
3863.000000	99.554151
3862.000000	99.554440
3861.000000	99.554732
3860.000000	99.555025
3859.000000	99.555310
3858.000000	99.555577
3857.000000	99.555826
3856.000000	99.556063
3855.000000	99.556295
3854.000000	99.556531
3853.000000	99.556799
3852.000000	99.557127
3851.000000	99.557510
3850.000000	99.557925
3849.000000	99.558363
3848.000000	99.558821
3847.000000	99.559293
3846.000000	99.559771
3845.000000	99.560244
3844.000000	99.560709
3843.000000	99.561167
3842.000000	99.561630
3841.000000	99.562108
3840.000000	99.562599
3839.000000	99.563096
3838.000000	99.563590
3837.000000	99.564081
3836.000000	99.564574
3835.000000	99.565075
3834.000000	99.565591
3833.000000	99.566122
3832.000000	99.566665
3831.000000	99.567214
3830.000000	99.567764
3829.000000	99.568310
3828.000000	99.568844
3827.000000	99.569361
3826.000000	99.569862
3825.000000	99.570352
3824.000000	99.570831
3823.000000	99.571283
3822.000000	99.571696
3821.000000	99.572073
3820.000000	99.572427
3819.000000	99.572756
3818.000000	99.573047
3817.000000	99.573309
3816.000000	99.573571
3815.000000	99.573857
3814.000000	99.574158
3813.000000	99.574451
3812.000000	99.574727
3811.000000	99.574991
3810.000000	99.575232
3809.000000	99.575430
3808.000000	99.575572
3807.000000	99.575666
3806.000000	99.575725
3805.000000	99.575754
3804.000000	99.575745
3803.000000	99.575701
3802.000000	99.575645
3801.000000	99.575601
3800.000000	99.575579
3799.000000	99.575564
3798.000000	99.575552
3797.000000	99.575556
3796.000000	99.575589
3795.000000	99.575648
3794.000000	99.575714
3793.000000	99.575770
3792.000000	99.575811
3791.000000	99.575833
3790.000000	99.575837
3789.000000	99.575823
3788.000000	99.575796
3787.000000	99.575762
3786.000000	99.575729
3785.000000	99.575711
3784.000000	99.575713
3783.000000	99.575721
3782.000000	99.575716
3781.000000	99.575695
3780.000000	99.575673
3779.000000	99.575658
3778.000000	99.575639
3777.000000	99.575596
3776.000000	99.575529
3775.000000	99.575449
3774.000000	99.575359
3773.000000	99.575249
3772.000000	99.575107
3771.000000	99.574928
3770.000000	99.574713
3769.000000	99.574460
3768.000000	99.574162
3767.000000	99.573819
3766.000000	99.573439
3765.000000	99.573029
3764.000000	99.572587
3763.000000	99.572103
3762.000000	99.571577
3761.000000	99.571021
3760.000000	99.570439
3759.000000	99.569816
3758.000000	99.569137
3757.000000	99.568392
3756.000000	99.567588
3755.000000	99.566723
3754.000000	99.565769
3753.000000	99.564702
3752.000000	99.563525
3751.000000	99.562207
3750.000000	99.560732
3749.000000	99.559203
3748.000000	99.557697
3747.000000	99.556133
3746.000000	99.554394
3745.000000	99.552465
3744.000000	99.550598
3743.000000	99.548880
3742.000000	99.546688
3741.000000	99.543751
3740.000000	99.540566
3739.000000	99.537750
3738.000000	99.535225
3737.000000	99.532357
3736.000000	99.528909
3735.000000	99.525449
3734.000000	99.522461
3733.000000	99.519630
3732.000000	99.516665
3731.000000	99.513824
3730.000000	99.510977
3729.000000	99.507425
3728.000000	99.503151
3727.000000	99.499452
3726.000000	99.497499
3725.000000	99.496124
3724.000000	99.492568
3723.000000	99.486017
3722.000000	99.478644
3721.000000	99.472904
3720.000000	99.468897
3719.000000	99.465088
3718.000000	99.460482
3717.000000	99.455963
3716.000000	99.452937
3715.000000	99.451142
3714.000000	99.449096
3713.000000	99.444172
3712.000000	99.433407
3711.000000	99.418028
3710.000000	99.404092
3709.000000	99.395610
3708.000000	99.390877
3707.000000	99.385846
3706.000000	99.377638
3705.000000	99.365534
3704.000000	99.351353
3703.000000	99.338962
3702.000000	99.331920
3701.000000	99.330932
3700.000000	99.332548
3699.000000	99.330795
3698.000000	99.322429
3697.000000	99.310164
3696.000000	99.299118
3695.000000	99.290899
3694.000000	99.284006
3693.000000	99.278989
3692.000000	99.277276
3691.000000	99.275406
3690.000000	99.265927
3689.000000	99.247675
3688.000000	99.229264
3687.000000	99.216018
3686.000000	99.204087
3685.000000	99.190879
3684.000000	99.180202
3683.000000	99.174782
3682.000000	99.169228
3681.000000	99.154706
3680.000000	99.130616
3679.000000	99.104738
3678.000000	99.082047
3677.000000	99.060167
3676.000000	99.037406
3675.000000	99.021403
3674.000000	99.013735
3673.000000	98.998199
3672.000000	98.967455
3671.000000	98.934608
3670.000000	98.913933
3669.000000	98.905574
3668.000000	98.896000
3667.000000	98.873710
3666.000000	98.841848
3665.000000	98.810272
3664.000000	98.784004
3663.000000	98.761985
3662.000000	98.741992
3661.000000	98.723937
3660.000000	98.708672
3659.000000	98.693928
3658.000000	98.674882
3657.000000	98.649253
3656.000000	98.623143
3655.000000	98.604391
3654.000000	98.589536
3653.000000	98.570344
3652.000000	98.546472
3651.000000	98.520679
3650.000000	98.489458
3649.000000	98.450678
3648.000000	98.412876
3647.000000	98.384773
3646.000000	98.364600
3645.000000	98.345705
3644.000000	98.325455
3643.000000	98.307323
3642.000000	98.294882
3641.000000	98.286330
3640.000000	98.275992
3639.000000	98.261064
3638.000000	98.244942
3637.000000	98.230219
3636.000000	98.213412
3635.000000	98.190572
3634.000000	98.165399
3633.000000	98.144879
3632.000000	98.128126
3631.000000	98.108420
3630.000000	98.082706
3629.000000	98.058716
3628.000000	98.051199
3627.000000	98.056560
3626.000000	98.055045
3625.000000	98.045394
3624.000000	98.040789
3623.000000	98.046082
3622.000000	98.054884
3621.000000	98.060292
3620.000000	98.062688
3619.000000	98.067011
3618.000000	98.076811
3617.000000	98.090346
3616.000000	98.104337
3615.000000	98.118870
3614.000000	98.136302
3613.000000	98.158329
3612.000000	98.184363
3611.000000	98.211489
3610.000000	98.237512
3609.000000	98.262651
3608.000000	98.286794
3607.000000	98.308026
3606.000000	98.323508
3605.000000	98.332944
3604.000000	98.340311
3603.000000	98.349601
3602.000000	98.361661
3601.000000	98.375545
3600.000000	98.391206
3599.000000	98.407170
3598.000000	98.420377
3597.000000	98.429294
3596.000000	98.434719
3595.000000	98.437883
3594.000000	98.440368
3593.000000	98.442937
3592.000000	98.444194
3591.000000	98.442397
3590.000000	98.436502
3589.000000	98.426307
3588.000000	98.413673
3587.000000	98.405570
3586.000000	98.408409
3585.000000	98.419315
3584.000000	98.430833
3583.000000	98.438721
3582.000000	98.442007
3581.000000	98.441595
3580.000000	98.440035
3579.000000	98.439725
3578.000000	98.440642
3577.000000	98.440569
3576.000000	98.436743
3575.000000	98.427562
3574.000000	98.413421
3573.000000	98.396853
3572.000000	98.381269
3571.000000	98.369155
3570.000000	98.360441
3569.000000	98.352405
3568.000000	98.341892
3567.000000	98.329219
3566.000000	98.318789
3565.000000	98.313199
3564.000000	98.311642
3563.000000	98.313954
3562.000000	98.320164
3561.000000	98.328091
3560.000000	98.334075
3559.000000	98.335772
3558.000000	98.333089
3557.000000	98.328003
3556.000000	98.323594
3555.000000	98.321842
3554.000000	98.321525
3553.000000	98.319258
3552.000000	98.313192
3551.000000	98.305005
3550.000000	98.297965
3549.000000	98.294460
3548.000000	98.294892
3547.000000	98.297411
3546.000000	98.299325
3545.000000	98.300090
3544.000000	98.301401
3543.000000	98.304334
3542.000000	98.307804
3541.000000	98.310198
3540.000000	98.311276
3539.000000	98.311975
3538.000000	98.313008
3537.000000	98.314006
3536.000000	98.314148
3535.000000	98.312841
3534.000000	98.310208
3533.000000	98.307226
3532.000000	98.305419
3531.000000	98.305696
3530.000000	98.307348
3529.000000	98.308821
3528.000000	98.309374
3527.000000	98.309620
3526.000000	98.310222
3525.000000	98.310932
3524.000000	98.311007
3523.000000	98.310271
3522.000000	98.309581
3521.000000	98.310294
3520.000000	98.313290
3519.000000	98.318260
3518.000000	98.323711
3517.000000	98.327720
3516.000000	98.329188
3515.000000	98.328517
3514.000000	98.327215
3513.000000	98.326447
3512.000000	98.326095
3511.000000	98.325327
3510.000000	98.323752
3509.000000	98.321772
3508.000000	98.319924
3507.000000	98.318384
3506.000000	98.317388
3505.000000	98.317575
3504.000000	98.319156
3503.000000	98.321017
3502.000000	98.321327
3501.000000	98.319228
3500.000000	98.315632
3499.000000	98.312380
3498.000000	98.310838
3497.000000	98.311288
3496.000000	98.313224
3495.000000	98.315814
3494.000000	98.318291
3493.000000	98.320193
3492.000000	98.321269
3491.000000	98.321245
3490.000000	98.319890
3489.000000	98.317421
3488.000000	98.314739
3487.000000	98.312956
3486.000000	98.312510
3485.000000	98.312701
3484.000000	98.312091
3483.000000	98.309542
3482.000000	98.305311
3481.000000	98.301132
3480.000000	98.298719
3479.000000	98.298164
3478.000000	98.298112
3477.000000	98.297386
3476.000000	98.295849
3475.000000	98.293683
3474.000000	98.290596
3473.000000	98.286394
3472.000000	98.281839
3471.000000	98.278163
3470.000000	98.275748
3469.000000	98.273848
3468.000000	98.271740
3467.000000	98.269703
3466.000000	98.268434
3465.000000	98.267796
3464.000000	98.266685
3463.000000	98.264060
3462.000000	98.259784
3461.000000	98.254546
3460.000000	98.249261
3459.000000	98.244513
3458.000000	98.240362
3457.000000	98.236613
3456.000000	98.233413
3455.000000	98.231283
3454.000000	98.230226
3453.000000	98.228982
3452.000000	98.225826
3451.000000	98.220102
3450.000000	98.212724
3449.000000	98.205343
3448.000000	98.199154
3447.000000	98.194535
3446.000000	98.191392
3445.000000	98.189504
3444.000000	98.188573
3443.000000	98.188084
3442.000000	98.187148
3441.000000	98.184745
3440.000000	98.180506
3439.000000	98.175408
3438.000000	98.171391
3437.000000	98.169754
3436.000000	98.169833
3435.000000	98.169378
3434.000000	98.166509
3433.000000	98.161311
3432.000000	98.155580
3431.000000	98.150955
3430.000000	98.147412
3429.000000	98.143773
3428.000000	98.139469
3427.000000	98.135512
3426.000000	98.133524
3425.000000	98.134058
3424.000000	98.135870
3423.000000	98.136789
3422.000000	98.135645
3421.000000	98.133207
3420.000000	98.131130
3419.000000	98.130105
3418.000000	98.129409
3417.000000	98.128207
3416.000000	98.126701
3415.000000	98.125686
3414.000000	98.125363
3413.000000	98.125073
3412.000000	98.124126
3411.000000	98.122585
3410.000000	98.121150
3409.000000	98.120498
3408.000000	98.120726
3407.000000	98.121422
3406.000000	98.122317
3405.000000	98.123636
3404.000000	98.125561
3403.000000	98.127379
3402.000000	98.127650
3401.000000	98.125499
3400.000000	98.121673
3399.000000	98.118286
3398.000000	98.117414
3397.000000	98.119794
3396.000000	98.124557
3395.000000	98.129927
3394.000000	98.134345
3393.000000	98.137198
3392.000000	98.138695
3391.000000	98.139359
3390.000000	98.139674
3389.000000	98.139877
3388.000000	98.139918
3387.000000	98.139770
3386.000000	98.140032
3385.000000	98.141855
3384.000000	98.145774
3383.000000	98.150759
3382.000000	98.154855
3381.000000	98.157017
3380.000000	98.157934
3379.000000	98.159106
3378.000000	98.161321
3377.000000	98.164266
3376.000000	98.167322
3375.000000	98.170377
3374.000000	98.173789
3373.000000	98.177776
3372.000000	98.181937
3371.000000	98.185438
3370.000000	98.187685
3369.000000	98.188812
3368.000000	98.189596
3367.000000	98.190859
3366.000000	98.192942
3365.000000	98.195691
3364.000000	98.198781
3363.000000	98.201966
3362.000000	98.205157
3361.000000	98.208364
3360.000000	98.211593
3359.000000	98.214761
3358.000000	98.217746
3357.000000	98.220518
3356.000000	98.223195
3355.000000	98.225965
3354.000000	98.229034
3353.000000	98.232612
3352.000000	98.236805
3351.000000	98.241356
3350.000000	98.245610
3349.000000	98.248990
3348.000000	98.251546
3347.000000	98.253997
3346.000000	98.257150
3345.000000	98.261268
3344.000000	98.265975
3343.000000	98.270571
3342.000000	98.274511
3341.000000	98.277667
3340.000000	98.280275
3339.000000	98.282685
3338.000000	98.285104
3337.000000	98.287516
3336.000000	98.289857
3335.000000	98.292255
3334.000000	98.295035
3333.000000	98.298430
3332.000000	98.302319
3331.000000	98.306250
3330.000000	98.309762
3329.000000	98.312729
3328.000000	98.315416
3327.000000	98.318285
3326.000000	98.321654
3325.000000	98.325514
3324.000000	98.329562
3323.000000	98.333419
3322.000000	98.336873
3321.000000	98.339930
3320.000000	98.342704
3319.000000	98.345308
3318.000000	98.347868
3317.000000	98.350536
3316.000000	98.353410
3315.000000	98.356467
3314.000000	98.359635
3313.000000	98.362901
3312.000000	98.366263
3311.000000	98.369575
3310.000000	98.372529
3309.000000	98.374930
3308.000000	98.376945
3307.000000	98.379042
3306.000000	98.381602
3305.000000	98.384583
3304.000000	98.387606
3303.000000	98.390330
3302.000000	98.392757
3301.000000	98.395182
3300.000000	98.397886
3299.000000	98.400909
3298.000000	98.404063
3297.000000	98.407083
3296.000000	98.409836
3295.000000	98.412410
3294.000000	98.415057
3293.000000	98.417958
3292.000000	98.421019
3291.000000	98.423966
3290.000000	98.426668
3289.000000	98.429261
3288.000000	98.431861
3287.000000	98.434296
3286.000000	98.436329
3285.000000	98.438111
3284.000000	98.440156
3283.000000	98.442846
3282.000000	98.446152
3281.000000	98.449830
3280.000000	98.453638
3279.000000	98.457310
3278.000000	98.460644
3277.000000	98.463696
3276.000000	98.466735
3275.000000	98.469896
3274.000000	98.473018
3273.000000	98.475902
3272.000000	98.478600
3271.000000	98.481341
3270.000000	98.484262
3269.000000	98.487291
3268.000000	98.490175
3267.000000	98.492621
3266.000000	98.494634
3265.000000	98.496813
3264.000000	98.500002
3263.000000	98.504510
3262.000000	98.509756
3261.000000	98.514807
3260.000000	98.519118
3259.000000	98.522558
3258.000000	98.525009
3257.000000	98.526398
3256.000000	98.527221
3255.000000	98.528533
3254.000000	98.531071
3253.000000	98.534592
3252.000000	98.538195
3251.000000	98.541326
3250.000000	98.544330
3249.000000	98.547877
3248.000000	98.552068
3247.000000	98.556262
3246.000000	98.559817
3245.000000	98.562883
3244.000000	98.566257
3243.000000	98.570491
3242.000000	98.575325
3241.000000	98.580014
3240.000000	98.584017
3239.000000	98.587258
3238.000000	98.589870
3237.000000	98.591975
3236.000000	98.593829
3235.000000	98.595983
3234.000000	98.599049
3233.000000	98.603262
3232.000000	98.608288
3231.000000	98.613412
3230.000000	98.617959
3229.000000	98.621630
3228.000000	98.624616
3227.000000	98.627504
3226.000000	98.631016
3225.000000	98.635701
3224.000000	98.641674
3223.000000	98.648420
3222.000000	98.654830
3221.000000	98.659706
3220.000000	98.662611
3219.000000	98.664263
3218.000000	98.665984
3217.000000	98.668660
3216.000000	98.672301
3215.000000	98.676560
3214.000000	98.681257
3213.000000	98.686217
3212.000000	98.690922
3211.000000	98.694791
3210.000000	98.697800
3209.000000	98.700377
3208.000000	98.702682
3207.000000	98.704424
3206.000000	98.705594
3205.000000	98.707034
3204.000000	98.709792
3203.000000	98.714015
3202.000000	98.718805
3201.000000	98.723210
3200.000000	98.727101
3199.000000	98.730924
3198.000000	98.734914
3197.000000	98.738860
3196.000000	98.742546
3195.000000	98.746056
3194.000000	98.749488
3193.000000	98.752607
3192.000000	98.755096
3191.000000	98.757154
3190.000000	98.759547
3189.000000	98.762917
3188.000000	98.767266
3187.000000	98.772288
3186.000000	98.777886
3185.000000	98.783988
3184.000000	98.789942
3183.000000	98.794674
3182.000000	98.797664
3181.000000	98.799513
3180.000000	98.801502
3179.000000	98.804557
3178.000000	98.808775
3177.000000	98.813661
3176.000000	98.818480
3175.000000	98.822589
3174.000000	98.825803
3173.000000	98.828569
3172.000000	98.831550
3171.000000	98.834908
3170.000000	98.838170
3169.000000	98.840855
3168.000000	98.843061
3167.000000	98.845400
3166.000000	98.848400
3165.000000	98.852054
3164.000000	98.855936
3163.000000	98.859676
3162.000000	98.863303
3161.000000	98.867087
3160.000000	98.871122
3159.000000	98.875166
3158.000000	98.878890
3157.000000	98.882196
3156.000000	98.885260
3155.000000	98.888351
3154.000000	98.891666
3153.000000	98.895232
3152.000000	98.898833
3151.000000	98.902112
3150.000000	98.904918
3149.000000	98.907551
3148.000000	98.910498
3147.000000	98.913910
3146.000000	98.917541
3145.000000	98.921065
3144.000000	98.924397
3143.000000	98.927649
3142.000000	98.930907
3141.000000	98.934152
3140.000000	98.937352
3139.000000	98.940513
3138.000000	98.943630
3137.000000	98.946647
3136.000000	98.949540
3135.000000	98.952390
3134.000000	98.955309
3133.000000	98.958357
3132.000000	98.961573
3131.000000	98.965014
3130.000000	98.968665
3129.000000	98.972339
3128.000000	98.975763
3127.000000	98.978826
3126.000000	98.981634
3125.000000	98.984319
3124.000000	98.986885
3123.000000	98.989348
3122.000000	98.991915
3121.000000	98.994856
3120.000000	98.998178
3119.000000	99.001579
3118.000000	99.004758
3117.000000	99.007725
3116.000000	99.010729
3115.000000	99.014010
3114.000000	99.017650
3113.000000	99.021510
3112.000000	99.025176
3111.000000	99.028123
3110.000000	99.030121
3109.000000	99.031550
3108.000000	99.033255
3107.000000	99.035888
3106.000000	99.039497
3105.000000	99.043609
3104.000000	99.047540
3103.000000	99.050746
3102.000000	99.053124
3101.000000	99.055228
3100.000000	99.057939
3099.000000	99.061587
3098.000000	99.065498
3097.000000	99.068584
3096.000000	99.070318
3095.000000	99.071036
3094.000000	99.071573
3093.000000	99.072746
3092.000000	99.075004
3091.000000	99.078213
3090.000000	99.081628
3089.000000	99.084352
3088.000000	99.086009
3087.000000	99.086932
3086.000000	99.087788
3085.000000	99.089058
3084.000000	99.090777
3083.000000	99.092566
3082.000000	99.093906
3081.000000	99.094581
3080.000000	99.094938
3079.000000	99.095626
3078.000000	99.097070
3077.000000	99.099222
3076.000000	99.101835
3075.000000	99.104828
3074.000000	99.108253
3073.000000	99.111963
3072.000000	99.115460
3071.000000	99.118196
3070.000000	99.120081
3069.000000	99.121573
3068.000000	99.123084
3067.000000	99.124377
3066.000000	99.124832
3065.000000	99.124298
3064.000000	99.123451
3063.000000	99.123218
3062.000000	99.124044
3061.000000	99.125863
3060.000000	99.128340
3059.000000	99.130962
3058.000000	99.133159
3057.000000	99.134601
3056.000000	99.135390
3055.000000	99.135901
3054.000000	99.136517
3053.000000	99.137555
3052.000000	99.139210
3051.000000	99.141372
3050.000000	99.143584
3049.000000	99.145365
3048.000000	99.146559
3047.000000	99.147256
3046.000000	99.147568
3045.000000	99.147727
3044.000000	99.148169
3043.000000	99.149263
3042.000000	99.150936
3041.000000	99.152698
3040.000000	99.154065
3039.000000	99.154861
3038.000000	99.155169
3037.000000	99.155253
3036.000000	99.155566
3035.000000	99.156552
3034.000000	99.158262
3033.000000	99.160181
3032.000000	99.161582
3031.000000	99.162096
3030.000000	99.161876
3029.000000	99.161354
3028.000000	99.160988
3027.000000	99.161089
3026.000000	99.161746
3025.000000	99.162842
3024.000000	99.164126
3023.000000	99.165319
3022.000000	99.166214
3021.000000	99.166783
3020.000000	99.167195
3019.000000	99.167550
3018.000000	99.167481
3017.000000	99.166396
3016.000000	99.164490
3015.000000	99.163081
3014.000000	99.163287
3013.000000	99.164517
3012.000000	99.165167
3011.000000	99.164973
3010.000000	99.165675
3009.000000	99.168587
3008.000000	99.172171
3007.000000	99.173105
3006.000000	99.169827
3005.000000	99.164289
3004.000000	99.160064
3003.000000	99.159112
3002.000000	99.160726
3001.000000	99.162958
3000.000000	99.164269
2999.000000	99.163955
2998.000000	99.161881
2997.000000	99.158404
2996.000000	99.154517
2995.000000	99.151645
2994.000000	99.150709
2993.000000	99.151107
2992.000000	99.151018
2991.000000	99.149434
2990.000000	99.147728
2989.000000	99.148161
2988.000000	99.150314
2987.000000	99.150100
2986.000000	99.143553
2985.000000	99.131377
2984.000000	99.118714
2983.000000	99.110169
2982.000000	99.106009
2981.000000	99.103321
2980.000000	99.099961
2979.000000	99.096743
2978.000000	99.096133
2977.000000	99.099685
2976.000000	99.106893
2975.000000	99.115929
2974.000000	99.125172
2973.000000	99.134101
2972.000000	99.142916
2971.000000	99.151669
2970.000000	99.160108
2969.000000	99.168263
2968.000000	99.176600
2967.000000	99.185246
2966.000000	99.193376
2965.000000	99.199926
2964.000000	99.204897
2963.000000	99.209469
2962.000000	99.214599
2961.000000	99.219970
2960.000000	99.224858
2959.000000	99.229639
2958.000000	99.235472
2957.000000	99.242308
2956.000000	99.248265
2955.000000	99.251670
2954.000000	99.253073
2953.000000	99.254395
2952.000000	99.256572
2951.000000	99.258955
2950.000000	99.260713
2949.000000	99.261575
2948.000000	99.261124
2947.000000	99.258763
2946.000000	99.254948
2945.000000	99.251612
2944.000000	99.250846
2943.000000	99.253615
2942.000000	99.259649
2941.000000	99.267489
2940.000000	99.274426
2939.000000	99.277947
2938.000000	99.278145
2937.000000	99.277894
2936.000000	99.279930
2935.000000	99.284479
2934.000000	99.290218
2933.000000	99.296197
2932.000000	99.301744
2931.000000	99.305642
2930.000000	99.307182
2929.000000	99.307580
2928.000000	99.308713
2927.000000	99.310520
2926.000000	99.311312
2925.000000	99.310666
2924.000000	99.310275
2923.000000	99.311582
2922.000000	99.314089
2921.000000	99.316650
2920.000000	99.319005
2919.000000	99.321062
2918.000000	99.321757
2917.000000	99.319888
2916.000000	99.315845
2915.000000	99.311813
2914.000000	99.310047
2913.000000	99.310901
2912.000000	99.312231
2911.000000	99.310965
2910.000000	99.305977
2909.000000	99.299603
2908.000000	99.295693
2907.000000	99.295786
2906.000000	99.297867
2905.000000	99.298838
2904.000000	99.297639
2903.000000	99.295648
2902.000000	99.294798
2901.000000	99.295809
2900.000000	99.297954
2899.000000	99.299529
2898.000000	99.299101
2897.000000	99.296724
2896.000000	99.293906
2895.000000	99.292241
2894.000000	99.292385
2893.000000	99.294329
2892.000000	99.297855
2891.000000	99.302236
2890.000000	99.306056
2889.000000	99.308045
2888.000000	99.308039
2887.000000	99.306858
2886.000000	99.305518
2885.000000	99.304739
2884.000000	99.304828
2883.000000	99.305714
2882.000000	99.307299
2881.000000	99.309786
2880.000000	99.313211
2879.000000	99.316590
2878.000000	99.318410
2877.000000	99.318457
2876.000000	99.318514
2875.000000	99.320593
2874.000000	99.324937
2873.000000	99.330241
2872.000000	99.335307
2871.000000	99.339683
2870.000000	99.343003
2869.000000	99.344773
2868.000000	99.345034
2867.000000	99.344661
2866.000000	99.344765
2865.000000	99.346189
2864.000000	99.349465
2863.000000	99.354566
2862.000000	99.360419
2861.000000	99.365294
2860.000000	99.368299
2859.000000	99.370269
2858.000000	99.372794
2857.000000	99.376363
2856.000000	99.379789
2855.000000	99.381653
2854.000000	99.381938
2853.000000	99.382034
2852.000000	99.383283
2851.000000	99.385774
2850.000000	99.388479
2849.000000	99.390127
2848.000000	99.389981
2847.000000	99.388372
2846.000000	99.386831
2845.000000	99.387042
2844.000000	99.389090
2843.000000	99.391197
2842.000000	99.391729
2841.000000	99.391053
2840.000000	99.390724
2839.000000	99.391268
2838.000000	99.391879
2837.000000	99.392217
2836.000000	99.393237
2835.000000	99.395710
2834.000000	99.398879
2833.000000	99.401319
2832.000000	99.402581
2831.000000	99.403320
2830.000000	99.404255
2829.000000	99.405603
2828.000000	99.407200
2827.000000	99.408578
2826.000000	99.409171
2825.000000	99.409030
2824.000000	99.409143
2823.000000	99.410468
2822.000000	99.412713
2821.000000	99.414503
2820.000000	99.414888
2819.000000	99.414323
2818.000000	99.414134
2817.000000	99.415279
2816.000000	99.417802
2815.000000	99.421122
2814.000000	99.424537
2813.000000	99.427644
2812.000000	99.430418
2811.000000	99.432916
2810.000000	99.435016
2809.000000	99.436545
2808.000000	99.437611
2807.000000	99.438563
2806.000000	99.439555
2805.000000	99.440385
2804.000000	99.440959
2803.000000	99.441720
2802.000000	99.443286
2801.000000	99.445603
2800.000000	99.447785
2799.000000	99.449006
2798.000000	99.449362
2797.000000	99.449626
2796.000000	99.450308
2795.000000	99.451331
2794.000000	99.452672
2793.000000	99.454701
2792.000000	99.457537
2791.000000	99.460397
2790.000000	99.462184
2789.000000	99.462681
2788.000000	99.462824
2787.000000	99.463805
2786.000000	99.466108
2785.000000	99.469438
2784.000000	99.473072
2783.000000	99.476235
2782.000000	99.478436
2781.000000	99.479570
2780.000000	99.479712
2779.000000	99.478959
2778.000000	99.477660
2777.000000	99.476594
2776.000000	99.476422
2775.000000	99.477047
2774.000000	99.477957
2773.000000	99.479080
2772.000000	99.480819
2771.000000	99.483195
2770.000000	99.485509
2769.000000	99.487120
2768.000000	99.488128
2767.000000	99.488982
2766.000000	99.489782
2765.000000	99.490312
2764.000000	99.490544
2763.000000	99.490775
2762.000000	99.491350
2761.000000	99.492457
2760.000000	99.494052
2759.000000	99.495782
2758.000000	99.497150
2757.000000	99.497925
2756.000000	99.498275
2755.000000	99.498433
2754.000000	99.498427
2753.000000	99.498327
2752.000000	99.498467
2751.000000	99.499131
2750.000000	99.500148
2749.000000	99.501021
2748.000000	99.501496
2747.000000	99.501820
2746.000000	99.502406
2745.000000	99.503374
2744.000000	99.504523
2743.000000	99.505561
2742.000000	99.506323
2741.000000	99.506837
2740.000000	99.507228
2739.000000	99.507621
2738.000000	99.508091
2737.000000	99.508657
2736.000000	99.509293
2735.000000	99.509945
2734.000000	99.510552
2733.000000	99.511102
2732.000000	99.511628
2731.000000	99.512154
2730.000000	99.512665
2729.000000	99.513140
2728.000000	99.513586
2727.000000	99.514032
2726.000000	99.514502
2725.000000	99.515006
2724.000000	99.515543
2723.000000	99.516094
2722.000000	99.516607
2721.000000	99.517041
2720.000000	99.517398
2719.000000	99.517726
2718.000000	99.518078
2717.000000	99.518477
2716.000000	99.518921
2715.000000	99.519395
2714.000000	99.519881
2713.000000	99.520379
2712.000000	99.520901
2711.000000	99.521436
2710.000000	99.521937
2709.000000	99.522365
2708.000000	99.522732
2707.000000	99.523071
2706.000000	99.523391
2705.000000	99.523690
2704.000000	99.523991
2703.000000	99.524324
2702.000000	99.524687
2701.000000	99.525044
2700.000000	99.525373
2699.000000	99.525692
2698.000000	99.526022
2697.000000	99.526356
2696.000000	99.526674
2695.000000	99.526973
2694.000000	99.527279
2693.000000	99.527612
2692.000000	99.527969
2691.000000	99.528330
2690.000000	99.528676
2689.000000	99.529000
2688.000000	99.529302
2687.000000	99.529594
2686.000000	99.529890
2685.000000	99.530192
2684.000000	99.530492
2683.000000	99.530783
2682.000000	99.531061
2681.000000	99.531325
2680.000000	99.531576
2679.000000	99.531821
2678.000000	99.532073
2677.000000	99.532345
2676.000000	99.532632
2675.000000	99.532881
2674.000000	99.533034
2673.000000	99.533093
2672.000000	99.533113
2671.000000	99.533147
2670.000000	99.533193
2669.000000	99.533236
2668.000000	99.533262
2667.000000	99.533270
2666.000000	99.533267
2665.000000	99.533255
2664.000000	99.533239
2663.000000	99.533221
2662.000000	99.533198
2661.000000	99.533167
2660.000000	99.533132
2659.000000	99.533103
2658.000000	99.533081
2657.000000	99.533045
2656.000000	99.532967
2655.000000	99.532836
2654.000000	99.532670
2653.000000	99.532516
2652.000000	99.532408
2651.000000	99.532339
2650.000000	99.532272
2649.000000	99.532174
2648.000000	99.532034
2647.000000	99.531837
2646.000000	99.531574
2645.000000	99.531278
2644.000000	99.531022
2643.000000	99.530846
2642.000000	99.530690
2641.000000	99.530446
2640.000000	99.530074
2639.000000	99.529624
2638.000000	99.529169
2637.000000	99.528742
2636.000000	99.528371
2635.000000	99.528098
2634.000000	99.527932
2633.000000	99.527798
2632.000000	99.527584
2631.000000	99.527231
2630.000000	99.526775
2629.000000	99.526286
2628.000000	99.525775
2627.000000	99.525213
2626.000000	99.524626
2625.000000	99.524154
2624.000000	99.523943
2623.000000	99.524004
2622.000000	99.524178
2621.000000	99.524254
2620.000000	99.524112
2619.000000	99.523750
2618.000000	99.523244
2617.000000	99.522695
2616.000000	99.522157
2615.000000	99.521605
2614.000000	99.521012
2613.000000	99.520501
2612.000000	99.520298
2611.000000	99.520493
2610.000000	99.520887
2609.000000	99.521132
2608.000000	99.521052
2607.000000	99.520709
2606.000000	99.520246
2605.000000	99.519784
2604.000000	99.519432
2603.000000	99.519235
2602.000000	99.519076
2601.000000	99.518760
2600.000000	99.518246
2599.000000	99.517694
2598.000000	99.517274
2597.000000	99.517018
2596.000000	99.516890
2595.000000	99.516865
2594.000000	99.516874
2593.000000	99.516787
2592.000000	99.516544
2591.000000	99.516264
2590.000000	99.516128
2589.000000	99.516195
2588.000000	99.516374
2587.000000	99.516545
2586.000000	99.516639
2585.000000	99.516630
2584.000000	99.516529
2583.000000	99.516387
2582.000000	99.516259
2581.000000	99.516176
2580.000000	99.516128
2579.000000	99.516094
2578.000000	99.516057
2577.000000	99.516010
2576.000000	99.515958
2575.000000	99.515905
2574.000000	99.515857
2573.000000	99.515817
2572.000000	99.515787
2571.000000	99.515764
2570.000000	99.515746
2569.000000	99.515728
2568.000000	99.515710
2567.000000	99.515691
2566.000000	99.515670
2565.000000	99.515645
2564.000000	99.515620
2563.000000	99.515604
2562.000000	99.515606
2561.000000	99.515627
2560.000000	99.515662
2559.000000	99.515703
2558.000000	99.515745
2557.000000	99.515787
2556.000000	99.515830
2555.000000	99.515872
2554.000000	99.515914
2553.000000	99.515957
2552.000000	99.516005
2551.000000	99.516063
2550.000000	99.516134
2549.000000	99.516212
2548.000000	99.516292
2547.000000	99.516367
2546.000000	99.516437
2545.000000	99.516507
2544.000000	99.516580
2543.000000	99.516659
2542.000000	99.516743
2541.000000	99.516826
2540.000000	99.516902
2539.000000	99.516962
2538.000000	99.517003
2537.000000	99.517027
2536.000000	99.517041
2535.000000	99.517054
2534.000000	99.517078
2533.000000	99.517129
2532.000000	99.517212
2531.000000	99.517323
2530.000000	99.517433
2529.000000	99.517490
2528.000000	99.517460
2527.000000	99.517392
2526.000000	99.517404
2525.000000	99.517559
2524.000000	99.517788
2523.000000	99.517988
2522.000000	99.518152
2521.000000	99.518338
2520.000000	99.518575
2519.000000	99.518813
2518.000000	99.518971
2517.000000	99.519044
2516.000000	99.519153
2515.000000	99.519429
2514.000000	99.519856
2513.000000	99.520338
2512.000000	99.520895
2511.000000	99.521635
2510.000000	99.522481
2509.000000	99.523095
2508.000000	99.523265
2507.000000	99.523229
2506.000000	99.523440
2505.000000	99.524021
2504.000000	99.524597
2503.000000	99.524693
2502.000000	99.524219
2501.000000	99.523581
2500.000000	99.523294
2499.000000	99.523464
2498.000000	99.523660
2497.000000	99.523402
2496.000000	99.522757
2495.000000	99.522387
2494.000000	99.522973
2493.000000	99.524665
2492.000000	99.526936
2491.000000	99.528814
2490.000000	99.529546
2489.000000	99.529230
2488.000000	99.528811
2487.000000	99.529215
2486.000000	99.530500
2485.000000	99.532085
2484.000000	99.533648
2483.000000	99.535357
2482.000000	99.537266
2481.000000	99.539032
2480.000000	99.540318
2479.000000	99.541030
2478.000000	99.541049
2477.000000	99.540227
2476.000000	99.538880
2475.000000	99.537877
2474.000000	99.537871
2473.000000	99.538684
2472.000000	99.539606
2471.000000	99.540145
2470.000000	99.540388
2469.000000	99.540733
2468.000000	99.541483
2467.000000	99.542635
2466.000000	99.543907
2465.000000	99.544978
2464.000000	99.545762
2463.000000	99.546412
2462.000000	99.547036
2461.000000	99.547538
2460.000000	99.547795
2459.000000	99.547891
2458.000000	99.548066
2457.000000	99.548485
2456.000000	99.549134
2455.000000	99.549892
2454.000000	99.550627
2453.000000	99.551261
2452.000000	99.551784
2451.000000	99.552237
2450.000000	99.552674
2449.000000	99.553134
2448.000000	99.553634
2447.000000	99.554177
2446.000000	99.554750
2445.000000	99.555323
2444.000000	99.555858
2443.000000	99.556332
2442.000000	99.556751
2441.000000	99.557146
2440.000000	99.557559
2439.000000	99.558018
2438.000000	99.558524
2437.000000	99.559064
2436.000000	99.559617
2435.000000	99.560162
2434.000000	99.560670
2433.000000	99.561113
2432.000000	99.561480
2431.000000	99.561801
2430.000000	99.562152
2429.000000	99.562605
2428.000000	99.563184
2427.000000	99.563848
2426.000000	99.564510
2425.000000	99.565101
2424.000000	99.565593
2423.000000	99.566005
2422.000000	99.566401
2421.000000	99.566860
2420.000000	99.567437
2419.000000	99.568108
2418.000000	99.568784
2417.000000	99.569407
2416.000000	99.570010
2415.000000	99.570676
2414.000000	99.571443
2413.000000	99.572275
2412.000000	99.573077
2411.000000	99.573682
2410.000000	99.573899
2409.000000	99.573692
2408.000000	99.573328
2407.000000	99.573200
2406.000000	99.573477
2405.000000	99.573963
2404.000000	99.574350
2403.000000	99.574574
2402.000000	99.574869
2401.000000	99.575486
2400.000000	99.576431
2399.000000	99.577497
2398.000000	99.578543
2397.000000	99.579644
2396.000000	99.580893
2395.000000	99.582126
2394.000000	99.583027
2393.000000	99.583536
2392.000000	99.583946
2391.000000	99.584564
2390.000000	99.585390
2389.000000	99.586253
2388.000000	99.587056
2387.000000	99.587781
2386.000000	99.588391
2385.000000	99.588899
2384.000000	99.589466
2383.000000	99.590291
2382.000000	99.591360
2381.000000	99.592379
2380.000000	99.592985
2379.000000	99.593075
2378.000000	99.592878
2377.000000	99.592761
2376.000000	99.592901
2375.000000	99.593211
2374.000000	99.593530
2373.000000	99.593783
2372.000000	99.593981
2371.000000	99.594154
2370.000000	99.594321
2369.000000	99.594484
2368.000000	99.594627
2367.000000	99.594731
2366.000000	99.594800
2365.000000	99.594845
2364.000000	99.594863
2363.000000	99.594852
2362.000000	99.594812
2361.000000	99.594749
2360.000000	99.594670
2359.000000	99.594579
2358.000000	99.594475
2357.000000	99.594351
2356.000000	99.594203
2355.000000	99.594031
2354.000000	99.593837
2353.000000	99.593626
2352.000000	99.593407
2351.000000	99.593181
2350.000000	99.592945
2349.000000	99.592693
2348.000000	99.592429
2347.000000	99.592163
2346.000000	99.591907
2345.000000	99.591668
2344.000000	99.591441
2343.000000	99.591220
2342.000000	99.590993
2341.000000	99.590744
2340.000000	99.590465
2339.000000	99.590159
2338.000000	99.589842
2337.000000	99.589530
2336.000000	99.589231
2335.000000	99.588946
2334.000000	99.588665
2333.000000	99.588379
2332.000000	99.588076
2331.000000	99.587756
2330.000000	99.587437
2329.000000	99.587151
2328.000000	99.586878
2327.000000	99.586589
2326.000000	99.586270
2325.000000	99.585929
2324.000000	99.585551
2323.000000	99.585106
2322.000000	99.584678
2321.000000	99.584408
2320.000000	99.584344
2319.000000	99.584367
2318.000000	99.584258
2317.000000	99.584007
2316.000000	99.583624
2315.000000	99.583219
2314.000000	99.582659
2313.000000	99.582012
2312.000000	99.581301
2311.000000	99.580764
2310.000000	99.580358
2309.000000	99.580165
2308.000000	99.580155
2307.000000	99.580380
2306.000000	99.580442
2305.000000	99.580000
2304.000000	99.579018
2303.000000	99.578002
2302.000000	99.577170
2301.000000	99.576314
2300.000000	99.574991
2299.000000	99.573371
2298.000000	99.571946
2297.000000	99.571170
2296.000000	99.570885
2295.000000	99.570668
2294.000000	99.570064
2293.000000	99.568949
2292.000000	99.567467
2291.000000	99.565954
2290.000000	99.564745
2289.000000	99.564004
2288.000000	99.563631
2287.000000	99.563244
2286.000000	99.562405
2285.000000	99.560935
2284.000000	99.559084
2283.000000	99.557353
2282.000000	99.556096
2281.000000	99.555320
2280.000000	99.554859
2279.000000	99.554561
2278.000000	99.554286
2277.000000	99.553832
2276.000000	99.553033
2275.000000	99.551939
2274.000000	99.550798
2273.000000	99.549858
2272.000000	99.549145
2271.000000	99.548446
2270.000000	99.547498
2269.000000	99.546289
2268.000000	99.545128
2267.000000	99.544326
2266.000000	99.543802
2265.000000	99.543171
2264.000000	99.542192
2263.000000	99.540985
2262.000000	99.539791
2261.000000	99.538695
2260.000000	99.537704
2259.000000	99.536846
2258.000000	99.536075
2257.000000	99.535182
2256.000000	99.534044
2255.000000	99.532807
2254.000000	99.531648
2253.000000	99.530510
2252.000000	99.529331
2251.000000	99.528449
2250.000000	99.528319
2249.000000	99.528937
2248.000000	99.529745
2247.000000	99.530112
2246.000000	99.529708
2245.000000	99.528439
2244.000000	99.526411
2243.000000	99.524099
2242.000000	99.522267
2241.000000	99.521431
2240.000000	99.521541
2239.000000	99.522166
2238.000000	99.522858
2237.000000	99.523357
2236.000000	99.523600
2235.000000	99.523705
2234.000000	99.523856
2233.000000	99.524055
2232.000000	99.524033
2231.000000	99.523515
2230.000000	99.522567
2229.000000	99.521627
2228.000000	99.521186
2227.000000	99.521434
2226.000000	99.522162
2225.000000	99.522883
2224.000000	99.523139
2223.000000	99.522784
2222.000000	99.522011
2221.000000	99.521180
2220.000000	99.520521
2219.000000	99.520023
2218.000000	99.519594
2217.000000	99.519251
2216.000000	99.519091
2215.000000	99.519116
2214.000000	99.519177
2213.000000	99.519163
2212.000000	99.519144
2211.000000	99.519253
2210.000000	99.519460
2209.000000	99.519569
2208.000000	99.519446
2207.000000	99.519210
2206.000000	99.519146
2205.000000	99.519411
2204.000000	99.519860
2203.000000	99.520164
2202.000000	99.520123
2201.000000	99.519819
2200.000000	99.519478
2199.000000	99.519239
2198.000000	99.519090
2197.000000	99.518993
2196.000000	99.518978
2195.000000	99.519093
2194.000000	99.519254
2193.000000	99.519241
2192.000000	99.518897
2191.000000	99.518320
2190.000000	99.517814
2189.000000	99.517606
2188.000000	99.517682
2187.000000	99.517921
2186.000000	99.518295
2185.000000	99.518805
2184.000000	99.519266
2183.000000	99.519372
2182.000000	99.519057
2181.000000	99.518660
2180.000000	99.518634
2179.000000	99.519081
2178.000000	99.519718
2177.000000	99.520198
2176.000000	99.520405
2175.000000	99.520422
2174.000000	99.520443
2173.000000	99.520784
2172.000000	99.521738
2171.000000	99.523210
2170.000000	99.524591
2169.000000	99.525300
2168.000000	99.525336
2167.000000	99.525061
2166.000000	99.524537
2165.000000	99.523533
2164.000000	99.522205
2163.000000	99.521272
2162.000000	99.521299
2161.000000	99.522040
2160.000000	99.522720
2159.000000	99.522888
2158.000000	99.522811
2157.000000	99.523018
2156.000000	99.523695
2155.000000	99.524604
2154.000000	99.525467
2153.000000	99.526236
2152.000000	99.526913
2151.000000	99.527369
2150.000000	99.527557
2149.000000	99.527751
2148.000000	99.528229
2147.000000	99.528797
2146.000000	99.529015
2145.000000	99.528939
2144.000000	99.529129
2143.000000	99.529756
2142.000000	99.530226
2141.000000	99.530032
2140.000000	99.529502
2139.000000	99.529245
2138.000000	99.529251
2137.000000	99.529143
2136.000000	99.529069
2135.000000	99.529671
2134.000000	99.531149
2133.000000	99.532897
2132.000000	99.534144
2131.000000	99.534685
2130.000000	99.534892
2129.000000	99.535311
2128.000000	99.536351
2127.000000	99.538197
2126.000000	99.540855
2125.000000	99.544109
2124.000000	99.547332
2123.000000	99.549555
2122.000000	99.550140
2121.000000	99.549475
2120.000000	99.548780
2119.000000	99.548974
2118.000000	99.550022
2117.000000	99.551504
2116.000000	99.553231
2115.000000	99.554995
2114.000000	99.556239
2113.000000	99.556529
2112.000000	99.556075
2111.000000	99.555432
2110.000000	99.554917
2109.000000	99.554664
2108.000000	99.554900
2107.000000	99.555687
2106.000000	99.556684
2105.000000	99.557646
2104.000000	99.558854
2103.000000	99.560580
2102.000000	99.562373
2101.000000	99.563480
2100.000000	99.563799
2099.000000	99.563894
2098.000000	99.564197
2097.000000	99.564707
2096.000000	99.565485
2095.000000	99.566805
2094.000000	99.568618
2093.000000	99.570313
2092.000000	99.571319
2091.000000	99.571621
2090.000000	99.571551
2089.000000	99.571301
2088.000000	99.570903
2087.000000	99.570529
2086.000000	99.570442
2085.000000	99.570759
2084.000000	99.571451
2083.000000	99.572383
2082.000000	99.573239
2081.000000	99.573691
2080.000000	99.573807
2079.000000	99.573995
2078.000000	99.574371
2077.000000	99.574549
2076.000000	99.574289
2075.000000	99.573946
2074.000000	99.573960
2073.000000	99.574346
2072.000000	99.574919
2071.000000	99.575645
2070.000000	99.576374
2069.000000	99.576550
2068.000000	99.575739
2067.000000	99.574341
2066.000000	99.573376
2065.000000	99.573519
2064.000000	99.574632
2063.000000	99.576135
2062.000000	99.577457
2061.000000	99.578125
2060.000000	99.577840
2059.000000	99.576687
2058.000000	99.575164
2057.000000	99.573941
2056.000000	99.573528
2055.000000	99.574031
2054.000000	99.575075
2053.000000	99.576122
2052.000000	99.576980
2051.000000	99.577836
2050.000000	99.578608
2049.000000	99.578478
2048.000000	99.576551
2047.000000	99.573016
2046.000000	99.569380
2045.000000	99.567199
2044.000000	99.566751
2043.000000	99.567235
2042.000000	99.567936
2041.000000	99.568787
2040.000000	99.569701
2039.000000	99.569907
2038.000000	99.568564
2037.000000	99.565860
2036.000000	99.563031
2035.000000	99.561082
2034.000000	99.559881
2033.000000	99.558758
2032.000000	99.557512
2031.000000	99.556387
2030.000000	99.555409
2029.000000	99.554406
2028.000000	99.553493
2027.000000	99.553045
2026.000000	99.553009
2025.000000	99.552821
2024.000000	99.552081
2023.000000	99.551028
2022.000000	99.550201
2021.000000	99.549784
2020.000000	99.549474
2019.000000	99.548826
2018.000000	99.547626
2017.000000	99.546081
2016.000000	99.544707
2015.000000	99.543846
2014.000000	99.543275
2013.000000	99.542465
2012.000000	99.541239
2011.000000	99.539994
2010.000000	99.539213
2009.000000	99.538951
2008.000000	99.538847
2007.000000	99.538469
2006.000000	99.537466
2005.000000	99.535641
2004.000000	99.533092
2003.000000	99.530309
2002.000000	99.528045
2001.000000	99.526789
2000.000000	99.526587
1999.000000	99.526963
1998.000000	99.527164
1997.000000	99.526870
1996.000000	99.526448
1995.000000	99.526394
1994.000000	99.526705
1993.000000	99.526898
1992.000000	99.526532
1991.000000	99.525656
1990.000000	99.524664
1989.000000	99.523888
1988.000000	99.523449
1987.000000	99.523333
1986.000000	99.523477
1985.000000	99.523760
1984.000000	99.523950
1983.000000	99.523734
1982.000000	99.522954
1981.000000	99.521800
1980.000000	99.520781
1979.000000	99.520227
1978.000000	99.520047
1977.000000	99.519998
1976.000000	99.520000
1975.000000	99.520085
1974.000000	99.520191
1973.000000	99.520177
1972.000000	99.519962
1971.000000	99.519550
1970.000000	99.518969
1969.000000	99.518289
1968.000000	99.517630
1967.000000	99.517101
1966.000000	99.516729
1965.000000	99.516469
1964.000000	99.516225
1963.000000	99.515901
1962.000000	99.515465
1961.000000	99.515045
1960.000000	99.514882
1959.000000	99.515072
1958.000000	99.515359
1957.000000	99.515247
1956.000000	99.514457
1955.000000	99.513248
1954.000000	99.512301
1953.000000	99.512121
1952.000000	99.512447
1951.000000	99.512433
1950.000000	99.511490
1949.000000	99.509751
1948.000000	99.507899
1947.000000	99.506470
1946.000000	99.505447
1945.000000	99.504550
1944.000000	99.503602
1943.000000	99.502545
1942.000000	99.501351
1941.000000	99.500082
1940.000000	99.498851
1939.000000	99.497644
1938.000000	99.496326
1937.000000	99.494828
1936.000000	99.493290
1935.000000	99.491943
1934.000000	99.490890
1933.000000	99.490065
1932.000000	99.489201
1931.000000	99.488032
1930.000000	99.486410
1929.000000	99.484367
1928.000000	99.482248
1927.000000	99.480203
1926.000000	99.478030
1925.000000	99.475365
1924.000000	99.472313
1923.000000	99.469653
1922.000000	99.468067
1921.000000	99.467502
1920.000000	99.467261
1919.000000	99.466409
1918.000000	99.464225
1917.000000	99.460700
1916.000000	99.456834
1915.000000	99.453681
1914.000000	99.451436
1913.000000	99.449645
1912.000000	99.447902
1911.000000	99.446262
1910.000000	99.444532
1909.000000	99.441880
1908.000000	99.437882
1907.000000	99.432981
1906.000000	99.428404
1905.000000	99.425089
1904.000000	99.423463
1903.000000	99.423513
1902.000000	99.423868
1901.000000	99.422373
1900.000000	99.418373
1899.000000	99.413148
1898.000000	99.408493
1897.000000	99.404911
1896.000000	99.401996
1895.000000	99.399807
1894.000000	99.398366
1893.000000	99.396871
1892.000000	99.394623
1891.000000	99.391998
1890.000000	99.389616
1889.000000	99.387384
1888.000000	99.385337
1887.000000	99.384163
1886.000000	99.384268
1885.000000	99.384932
1884.000000	99.384576
1883.000000	99.382231
1882.000000	99.378046
1881.000000	99.373437
1880.000000	99.370735
1879.000000	99.370725
1878.000000	99.371783
1877.000000	99.371969
1876.000000	99.371086
1875.000000	99.370654
1874.000000	99.371519
1873.000000	99.372612
1872.000000	99.372966
1871.000000	99.373101
1870.000000	99.373464
1869.000000	99.373213
1868.000000	99.372760
1867.000000	99.374558
1866.000000	99.378875
1865.000000	99.383150
1864.000000	99.385398
1863.000000	99.385821
1862.000000	99.385407
1861.000000	99.384663
1860.000000	99.384442
1859.000000	99.385953
1858.000000	99.388919
1857.000000	99.391553
1856.000000	99.393536
1855.000000	99.396939
1854.000000	99.403185
1853.000000	99.410541
1852.000000	99.417181
1851.000000	99.421860
1850.000000	99.423960
1849.000000	99.423915
1848.000000	99.423469
1847.000000	99.424852
1846.000000	99.428883
1845.000000	99.434788
1844.000000	99.441288
1843.000000	99.447762
1842.000000	99.452747
1841.000000	99.454505
1840.000000	99.454051
1839.000000	99.453604
1838.000000	99.454195
1837.000000	99.454492
1836.000000	99.453626
1835.000000	99.452956
1834.000000	99.453530
1833.000000	99.454306
1832.000000	99.453773
1831.000000	99.451158
1830.000000	99.447873
1829.000000	99.446610
1828.000000	99.447931
1827.000000	99.450258
1826.000000	99.452865
1825.000000	99.455606
1824.000000	99.457318
1823.000000	99.457155
1822.000000	99.455653
1821.000000	99.454378
1820.000000	99.454446
1819.000000	99.455728
1818.000000	99.457828
1817.000000	99.459837
1816.000000	99.461130
1815.000000	99.462192
1814.000000	99.462917
1813.000000	99.462248
1812.000000	99.458921
1811.000000	99.454083
1810.000000	99.450799
1809.000000	99.449833
1808.000000	99.450214
1807.000000	99.451819
1806.000000	99.454506
1805.000000	99.456693
1804.000000	99.457059
1803.000000	99.456872
1802.000000	99.457723
1801.000000	99.459733
1800.000000	99.461449
1799.000000	99.462563
1798.000000	99.463482
1797.000000	99.463507
1796.000000	99.462494
1795.000000	99.462196
1794.000000	99.463918
1793.000000	99.466399
1792.000000	99.466798
1791.000000	99.466171
1790.000000	99.467432
1789.000000	99.469779
1788.000000	99.471035
1787.000000	99.471330
1786.000000	99.472716
1785.000000	99.476077
1784.000000	99.480083
1783.000000	99.483247
1782.000000	99.484141
1781.000000	99.483860
1780.000000	99.484013
1779.000000	99.485592
1778.000000	99.488644
1777.000000	99.492270
1776.000000	99.496190
1775.000000	99.499667
1774.000000	99.502150
1773.000000	99.504795
1772.000000	99.509351
1771.000000	99.516167
1770.000000	99.524026
1769.000000	99.530369
1768.000000	99.533190
1767.000000	99.532939
1766.000000	99.532322
1765.000000	99.533776
1764.000000	99.537319
1763.000000	99.541524
1762.000000	99.544841
1761.000000	99.548045
1760.000000	99.551698
1759.000000	99.555362
1758.000000	99.558352
1757.000000	99.560469
1756.000000	99.562081
1755.000000	99.562957
1754.000000	99.563308
1753.000000	99.564387
1752.000000	99.566760
1751.000000	99.568295
1750.000000	99.567840
1749.000000	99.566530
1748.000000	99.566025
1747.000000	99.566577
1746.000000	99.567339
1745.000000	99.568577
1744.000000	99.570114
1743.000000	99.571076
1742.000000	99.571149
1741.000000	99.570836
1740.000000	99.570445
1739.000000	99.570308
1738.000000	99.570402
1737.000000	99.570452
1736.000000	99.571509
1735.000000	99.575315
1734.000000	99.580005
1733.000000	99.581691
1732.000000	99.579625
1731.000000	99.575231
1730.000000	99.571776
1729.000000	99.571199
1728.000000	99.572921
1727.000000	99.574753
1726.000000	99.575095
1725.000000	99.574104
1724.000000	99.571917
1723.000000	99.569116
1722.000000	99.566534
1721.000000	99.564217
1720.000000	99.562144
1719.000000	99.560928
1718.000000	99.560857
1717.000000	99.559863
1716.000000	99.556389
1715.000000	99.551966
1714.000000	99.548662
1713.000000	99.546479
1712.000000	99.544294
1711.000000	99.541743
1710.000000	99.538896
1709.000000	99.535716
1708.000000	99.532393
1707.000000	99.529477
1706.000000	99.527618
1705.000000	99.526204
1704.000000	99.524246
1703.000000	99.521544
1702.000000	99.518664
1701.000000	99.515829
1700.000000	99.512429
1699.000000	99.509389
1698.000000	99.506694
1697.000000	99.502617
1696.000000	99.497112
1695.000000	99.492117
1694.000000	99.489009
1693.000000	99.486588
1692.000000	99.483831
1691.000000	99.480587
1690.000000	99.476451
1689.000000	99.471218
1688.000000	99.465722
1687.000000	99.460588
1686.000000	99.456288
1685.000000	99.452433
1684.000000	99.448139
1683.000000	99.444452
1682.000000	99.441629
1681.000000	99.438453
1680.000000	99.435495
1679.000000	99.433080
1678.000000	99.430541
1677.000000	99.427184
1676.000000	99.422714
1675.000000	99.417273
1674.000000	99.411841
1673.000000	99.407868
1672.000000	99.404898
1671.000000	99.401823
1670.000000	99.396564
1669.000000	99.389271
1668.000000	99.383824
1667.000000	99.381333
1666.000000	99.379994
1665.000000	99.378689
1664.000000	99.376613
1663.000000	99.373471
1662.000000	99.369139
1661.000000	99.365234
1660.000000	99.362742
1659.000000	99.360173
1658.000000	99.355642
1657.000000	99.349658
1656.000000	99.343895
1655.000000	99.339448
1654.000000	99.335255
1653.000000	99.327554
1652.000000	99.323219
1651.000000	99.323968
1650.000000	99.320767
1649.000000	99.318718
1648.000000	99.321564
1647.000000	99.324424
1646.000000	99.322616
1645.000000	99.319490
1644.000000	99.315781
1643.000000	99.311082
1642.000000	99.305598
1641.000000	99.300772
1640.000000	99.298593
1639.000000	99.298877
1638.000000	99.301236
1637.000000	99.305250
1636.000000	99.309606
1635.000000	99.310740
1634.000000	99.309752
1633.000000	99.307757
1632.000000	99.307335
1631.000000	99.312081
1630.000000	99.319978
1629.000000	99.325569
1628.000000	99.326481
1627.000000	99.325427
1626.000000	99.324279
1625.000000	99.323393
1624.000000	99.323018
1623.000000	99.323983
1622.000000	99.326722
1621.000000	99.331702
1620.000000	99.338972
1619.000000	99.347741
1618.000000	99.356132
1617.000000	99.361513
1616.000000	99.366235
1615.000000	99.373069
1614.000000	99.378792
1613.000000	99.381643
1612.000000	99.384136
1611.000000	99.387936
1610.000000	99.391823
1609.000000	99.396304
1608.000000	99.403761
1607.000000	99.413192
1606.000000	99.419640
1605.000000	99.422703
1604.000000	99.426747
1603.000000	99.433297
1602.000000	99.439832
1601.000000	99.444563
1600.000000	99.448639
1599.000000	99.452628
1598.000000	99.455504
1597.000000	99.457804
1596.000000	99.461832
1595.000000	99.468288
1594.000000	99.474669
1593.000000	99.479228
1592.000000	99.483702
1591.000000	99.490304
1590.000000	99.498314
1589.000000	99.505867
1588.000000	99.512841
1587.000000	99.519851
1586.000000	99.526324
1585.000000	99.531302
1584.000000	99.536283
1583.000000	99.541282
1582.000000	99.544606
1581.000000	99.546220
1580.000000	99.548081
1579.000000	99.550249
1578.000000	99.552385
1577.000000	99.556107
1576.000000	99.562721
1575.000000	99.570148
1574.000000	99.573802
1573.000000	99.573655
1572.000000	99.574349
1571.000000	99.577529
1570.000000	99.578129
1569.000000	99.572905
1568.000000	99.567833
1567.000000	99.565661
1566.000000	99.565713
1565.000000	99.567971
1564.000000	99.572267
1563.000000	99.575448
1562.000000	99.575563
1561.000000	99.576085
1560.000000	99.583793
1559.000000	99.587686
1558.000000	99.577899
1557.000000	99.569803
1556.000000	99.564764
1555.000000	99.563596
1554.000000	99.563768
1553.000000	99.562091
1552.000000	99.557408
1551.000000	99.550532
1550.000000	99.543794
1549.000000	99.537254
1548.000000	99.530612
1547.000000	99.523349
1546.000000	99.516154
1545.000000	99.510737
1544.000000	99.508260
1543.000000	99.507332
1542.000000	99.505622
1541.000000	99.500177
1540.000000	99.491748
1539.000000	99.487257
1538.000000	99.487364
1537.000000	99.485620
1536.000000	99.481021
1535.000000	99.475933
1534.000000	99.470279
1533.000000	99.463699
1532.000000	99.457248
1531.000000	99.451117
1530.000000	99.444394
1529.000000	99.436723
1528.000000	99.429360
1527.000000	99.424482
1526.000000	99.422178
1525.000000	99.420163
1524.000000	99.416513
1523.000000	99.411848
1522.000000	99.407827
1521.000000	99.404635
1520.000000	99.401254
1519.000000	99.396771
1518.000000	99.391390
1517.000000	99.386069
1516.000000	99.381384
1515.000000	99.377480
1514.000000	99.373980
1513.000000	99.370619
1512.000000	99.367086
1511.000000	99.363243
1510.000000	99.359207
1509.000000	99.355193
1508.000000	99.351389
1507.000000	99.347997
1506.000000	99.345291
1505.000000	99.342880
1504.000000	99.339821
1503.000000	99.335985
1502.000000	99.331885
1501.000000	99.328086
1500.000000	99.324826
1499.000000	99.321914
1498.000000	99.319154
1497.000000	99.316433
1496.000000	99.313530
1495.000000	99.310510
1494.000000	99.307435
1493.000000	99.304263
1492.000000	99.301076
1491.000000	99.298109
1490.000000	99.295548
1489.000000	99.293379
1488.000000	99.291340
1487.000000	99.289480
1486.000000	99.287786
1485.000000	99.285817
1484.000000	99.283777
1483.000000	99.281782
1482.000000	99.279561
1481.000000	99.276471
1480.000000	99.272452
1479.000000	99.268501
1478.000000	99.265789
1477.000000	99.264587
1476.000000	99.264066
1475.000000	99.264025
1474.000000	99.264695
1473.000000	99.265703
1472.000000	99.265453
1471.000000	99.263589
1470.000000	99.261025
1469.000000	99.258482
1468.000000	99.256262
1467.000000	99.254419
1466.000000	99.252513
1465.000000	99.250475
1464.000000	99.249169
1463.000000	99.248284
1462.000000	99.246630
1461.000000	99.243096
1460.000000	99.237920
1459.000000	99.231902
1458.000000	99.226977
1457.000000	99.225146
1456.000000	99.226111
1455.000000	99.225670
1454.000000	99.221088
1453.000000	99.216580
1452.000000	99.214914
1451.000000	99.214342
1450.000000	99.212497
1449.000000	99.209488
1448.000000	99.206265
1447.000000	99.204150
1446.000000	99.203012
1445.000000	99.204105
1444.000000	99.207594
1443.000000	99.210995
1442.000000	99.211865
1441.000000	99.209470
1440.000000	99.204721
1439.000000	99.198542
1438.000000	99.193973
1437.000000	99.192970
1436.000000	99.193944
1435.000000	99.193311
1434.000000	99.190653
1433.000000	99.188645
1432.000000	99.189407
1431.000000	99.191310
1430.000000	99.192873
1429.000000	99.195098
1428.000000	99.197813
1427.000000	99.199215
1426.000000	99.197811
1425.000000	99.197120
1424.000000	99.200248
1423.000000	99.204357
1422.000000	99.206440
1421.000000	99.208510
1420.000000	99.214381
1419.000000	99.221604
1418.000000	99.226111
1417.000000	99.229230
1416.000000	99.233948
1415.000000	99.241677
1414.000000	99.250780
1413.000000	99.258824
1412.000000	99.264914
1411.000000	99.269921
1410.000000	99.276117
1409.000000	99.284562
1408.000000	99.293227
1407.000000	99.300384
1406.000000	99.306547
1405.000000	99.315581
1404.000000	99.329523
1403.000000	99.344166
1402.000000	99.354337
1401.000000	99.359318
1400.000000	99.362380
1399.000000	99.366358
1398.000000	99.371590
1397.000000	99.377212
1396.000000	99.384038
1395.000000	99.394682
1394.000000	99.409495
1393.000000	99.425527
1392.000000	99.437849
1391.000000	99.443958
1390.000000	99.445906
1389.000000	99.448420
1388.000000	99.454851
1387.000000	99.464404
1386.000000	99.473405
1385.000000	99.479905
1384.000000	99.484771
1383.000000	99.488901
1382.000000	99.491887
1381.000000	99.492585
1380.000000	99.491557
1379.000000	99.491187
1378.000000	99.493123
1377.000000	99.496591
1376.000000	99.499897
1375.000000	99.502864
1374.000000	99.507132
1373.000000	99.514245
1372.000000	99.522697
1371.000000	99.529755
1370.000000	99.534237
1369.000000	99.537570
1368.000000	99.541048
1367.000000	99.543650
1366.000000	99.544090
1365.000000	99.543286
1364.000000	99.543708
1363.000000	99.546919
1362.000000	99.552392
1361.000000	99.558403
1360.000000	99.563221
1359.000000	99.565736
1358.000000	99.565921
1357.000000	99.565254
1356.000000	99.565600
1355.000000	99.567532
1354.000000	99.570251
1353.000000	99.572815
1352.000000	99.574478
1351.000000	99.575384
1350.000000	99.575775
1349.000000	99.576963
1348.000000	99.580001
1347.000000	99.583703
1346.000000	99.585258
1345.000000	99.582963
1344.000000	99.577415
1343.000000	99.570385
1342.000000	99.563875
1341.000000	99.560255
1340.000000	99.561410
1339.000000	99.566467
1338.000000	99.571882
1337.000000	99.574922
1336.000000	99.575682
1335.000000	99.575577
1334.000000	99.575209
1333.000000	99.574322
1332.000000	99.573134
1331.000000	99.572948
1330.000000	99.575057
1329.000000	99.579251
1328.000000	99.583219
1327.000000	99.584168
1326.000000	99.581222
1325.000000	99.576706
1324.000000	99.573906
1323.000000	99.574053
1322.000000	99.576184
1321.000000	99.578716
1320.000000	99.579982
1319.000000	99.578400
1318.000000	99.574167
1317.000000	99.570078
1316.000000	99.568942
1315.000000	99.570590
1314.000000	99.572791
1313.000000	99.574398
1312.000000	99.575900
1311.000000	99.577203
1310.000000	99.577089
1309.000000	99.575546
1308.000000	99.574684
1307.000000	99.576514
1306.000000	99.580259
1305.000000	99.583346
1304.000000	99.583995
1303.000000	99.582461
1302.000000	99.580415
1301.000000	99.579392
1300.000000	99.579431
1299.000000	99.579079
1298.000000	99.577036
1297.000000	99.573489
1296.000000	99.569580
1295.000000	99.566068
1294.000000	99.563533
1293.000000	99.563197
1292.000000	99.565949
1291.000000	99.570558
1290.000000	99.574163
1289.000000	99.574784
1288.000000	99.572496
1287.000000	99.568417
1286.000000	99.563972
1285.000000	99.560904
1284.000000	99.560051
1283.000000	99.559575
1282.000000	99.556090
1281.000000	99.548513
1280.000000	99.539836
1279.000000	99.534160
1278.000000	99.532986
1277.000000	99.534670
1276.000000	99.536207
1275.000000	99.535138
1274.000000	99.531646
1273.000000	99.529558
1272.000000	99.533233
1271.000000	99.542165
1270.000000	99.550651
1269.000000	99.554541
1268.000000	99.556079
1267.000000	99.559706
1266.000000	99.565048
1265.000000	99.566906
1264.000000	99.561702
1263.000000	99.551533
1262.000000	99.541781
1261.000000	99.536089
1260.000000	99.533776
1259.000000	99.530835
1258.000000	99.523720
1257.000000	99.512657
1256.000000	99.500764
1255.000000	99.489833
1254.000000	99.478656
1253.000000	99.466479
1252.000000	99.455865
1251.000000	99.449436
1250.000000	99.445020
1249.000000	99.437251
1248.000000	99.423939
1247.000000	99.407997
1246.000000	99.392814
1245.000000	99.378134
1244.000000	99.361683
1243.000000	99.343042
1242.000000	99.324181
1241.000000	99.306728
1240.000000	99.289904
1239.000000	99.271454
1238.000000	99.250692
1237.000000	99.230607
1236.000000	99.215754
1235.000000	99.206701
1234.000000	99.197323
1233.000000	99.179734
1232.000000	99.151880
1231.000000	99.118851
1230.000000	99.086750
1229.000000	99.056665
1228.000000	99.024850
1227.000000	98.986963
1226.000000	98.941328
1225.000000	98.889427
1224.000000	98.834234
1223.000000	98.777505
1222.000000	98.718194
1221.000000	98.653779
1220.000000	98.582664
1219.000000	98.504366
1218.000000	98.418502
1217.000000	98.325797
1216.000000	98.229821
1215.000000	98.135120
1214.000000	98.042960
1213.000000	97.951095
1212.000000	97.857987
1211.000000	97.764546
1210.000000	97.671256
1209.000000	97.576876
1208.000000	97.481230
1207.000000	97.386002
1206.000000	97.291102
1205.000000	97.193193
1204.000000	97.089921
1203.000000	96.983452
1202.000000	96.878402
1201.000000	96.778141
1200.000000	96.683856
1199.000000	96.594445
1198.000000	96.505967
1197.000000	96.413778
1196.000000	96.316970
1195.000000	96.219521
1194.000000	96.126406
1193.000000	96.039517
1192.000000	95.956466
1191.000000	95.871185
1190.000000	95.777034
1189.000000	95.672740
1188.000000	95.564778
1187.000000	95.460725
1186.000000	95.360861
1185.000000	95.259736
1184.000000	95.154858
1183.000000	95.049117
1182.000000	94.944913
1181.000000	94.840743
1180.000000	94.734093
1179.000000	94.623363
1178.000000	94.506546
1177.000000	94.382100
1176.000000	94.251479
1175.000000	94.117405
1174.000000	93.980306
1173.000000	93.840381
1172.000000	93.701398
1171.000000	93.566858
1170.000000	93.433856
1169.000000	93.297224
1168.000000	93.159119
1167.000000	93.028288
1166.000000	92.911451
1165.000000	92.813270
1164.000000	92.743602
1163.000000	92.714912
1162.000000	92.730277
1161.000000	92.779820
1160.000000	92.847707
1159.000000	92.915195
1158.000000	92.959946
1157.000000	92.964403
1156.000000	92.927307
1155.000000	92.860851
1154.000000	92.776685
1153.000000	92.680537
1152.000000	92.578053
1151.000000	92.475359
1150.000000	92.372486
1149.000000	92.265405
1148.000000	92.155872
1147.000000	92.050421
1146.000000	91.948616
1145.000000	91.841906
1144.000000	91.726161
1143.000000	91.606609
1142.000000	91.488734
1141.000000	91.372656
1140.000000	91.257517
1139.000000	91.142469
1138.000000	91.022837
1137.000000	90.895085
1136.000000	90.765928
1135.000000	90.645754
1134.000000	90.532048
1133.000000	90.411037
1132.000000	90.277241
1131.000000	90.139088
1130.000000	90.003004
1129.000000	89.864608
1128.000000	89.719790
1127.000000	89.572576
1126.000000	89.427025
1125.000000	89.281503
1124.000000	89.135195
1123.000000	88.990522
1122.000000	88.846025
1121.000000	88.697126
1120.000000	88.546662
1119.000000	88.403770
1118.000000	88.269715
1117.000000	88.136032
1116.000000	87.998459
1115.000000	87.860996
1114.000000	87.725099
1113.000000	87.587999
1112.000000	87.452931
1111.000000	87.326679
1110.000000	87.205393
1109.000000	87.077568
1108.000000	86.942113
1107.000000	86.808532
1106.000000	86.678756
1105.000000	86.545602
1104.000000	86.410285
1103.000000	86.283124
1102.000000	86.164298
1101.000000	86.042169
1100.000000	85.913604
1099.000000	85.788077
1098.000000	85.668153
1097.000000	85.545420
1096.000000	85.419365
1095.000000	85.300293
1094.000000	85.188664
1093.000000	85.072033
1092.000000	84.948774
1091.000000	84.834975
1090.000000	84.740419
1089.000000	84.656551
1088.000000	84.575106
1087.000000	84.499692
1086.000000	84.431409
1085.000000	84.361693
1084.000000	84.287817
1083.000000	84.218588
1082.000000	84.157385
1081.000000	84.095722
1080.000000	84.029469
1079.000000	83.964037
1078.000000	83.897594
1077.000000	83.817400
1076.000000	83.719847
1075.000000	83.616702
1074.000000	83.514223
1073.000000	83.402385
1072.000000	83.271500
1071.000000	83.123004
1070.000000	82.957710
1069.000000	82.769460
1068.000000	82.556948
1067.000000	82.327391
1066.000000	82.084032
1065.000000	81.825606
1064.000000	81.562024
1063.000000	81.312962
1062.000000	81.085408
1061.000000	80.869255
1060.000000	80.658441
1059.000000	80.457751
1058.000000	80.266090
1057.000000	80.073559
1056.000000	79.878625
1055.000000	79.687210
1054.000000	79.491183
1053.000000	79.270726
1052.000000	79.024196
1051.000000	78.771486
1050.000000	78.519341
1049.000000	78.250505
1048.000000	77.957607
1047.000000	77.658552
1046.000000	77.367137
1045.000000	77.074570
1044.000000	76.769607
1043.000000	76.453970
1042.000000	76.130086
1041.000000	75.794896
1040.000000	75.453907
1039.000000	75.121990
1038.000000	74.804274
1037.000000	74.496050
1036.000000	74.204230
1035.000000	73.944641
1034.000000	73.714293
1033.000000	73.492214
1032.000000	73.273069
1031.000000	73.073658
1030.000000	72.900831
1029.000000	72.740934
1028.000000	72.587484
1027.000000	72.451299
1026.000000	72.335030
1025.000000	72.224502
1024.000000	72.113176
1023.000000	72.009073
1022.000000	71.910616
1021.000000	71.802648
1020.000000	71.683406
1019.000000	71.568590
1018.000000	71.462348
1017.000000	71.351909
1016.000000	71.236843
1015.000000	71.134111
1014.000000	71.046399
1013.000000	70.955025
1012.000000	70.853444
1011.000000	70.759013
1010.000000	70.681489
1009.000000	70.607900
1008.000000	70.529562
1007.000000	70.457756
1006.000000	70.401478
1005.000000	70.354176
1004.000000	70.312257
1003.000000	70.282877
1002.000000	70.264624
1001.000000	70.244334
1000.000000	70.221120
999.000000	70.209906
998.000000	70.213934
997.000000	70.217805
996.000000	70.214680
995.000000	70.216310
994.000000	70.229437
993.000000	70.246923
992.000000	70.269025
991.000000	70.308632
990.000000	70.367781
989.000000	70.432615
988.000000	70.498773
987.000000	70.579234
986.000000	70.681431
985.000000	70.799815
984.000000	70.935631
983.000000	71.099846
982.000000	71.291458
981.000000	71.496871
980.000000	71.715211
979.000000	71.959793
978.000000	72.230206
977.000000	72.508119
976.000000	72.785996
975.000000	73.075700
974.000000	73.383619
973.000000	73.701660
972.000000	74.027883
971.000000	74.371478
970.000000	74.730718
969.000000	75.088755
968.000000	75.437550
967.000000	75.784703
966.000000	76.131748
965.000000	76.467746
964.000000	76.790254
963.000000	77.111442
962.000000	77.436626
961.000000	77.755833
960.000000	78.062604
959.000000	78.362695
958.000000	78.658559
957.000000	78.942742
956.000000	79.212168
955.000000	79.472770
954.000000	79.725684
953.000000	79.964516
952.000000	80.189435
951.000000	80.407902
950.000000	80.618580
949.000000	80.810588
948.000000	80.981392
947.000000	81.139991
946.000000	81.290729
945.000000	81.430059
944.000000	81.560868
943.000000	81.692797
942.000000	81.825863
941.000000	81.950221
940.000000	82.064422
939.000000	82.177720
938.000000	82.293146
937.000000	82.405400
936.000000	82.516666
935.000000	82.636006
934.000000	82.760952
933.000000	82.878584
932.000000	82.987794
931.000000	83.101909
930.000000	83.225766
929.000000	83.348777
928.000000	83.465318
927.000000	83.584094
926.000000	83.711943
925.000000	83.844430
924.000000	83.976916
923.000000	84.109139
922.000000	84.235204
921.000000	84.345087
920.000000	84.440150
919.000000	84.532274
918.000000	84.624926
917.000000	84.710771
916.000000	84.790528
915.000000	84.877313
914.000000	84.978654
913.000000	85.091145
912.000000	85.216951
911.000000	85.368501
910.000000	85.551470
909.000000	85.758588
908.000000	85.984807
907.000000	86.233436
906.000000	86.503440
905.000000	86.786213
904.000000	87.079097
903.000000	87.387893
902.000000	87.713041
901.000000	88.046954
900.000000	88.386387
899.000000	88.732769
898.000000	89.078795
897.000000	89.409615
896.000000	89.719230
895.000000	90.012284
894.000000	90.289286
893.000000	90.544874
892.000000	90.782341
891.000000	91.014966
890.000000	91.249019
889.000000	91.477730
888.000000	91.695016
887.000000	91.902790
886.000000	92.101985
885.000000	92.288794
884.000000	92.463993
883.000000	92.635761
882.000000	92.809700
881.000000	92.984353
880.000000	93.157327
879.000000	93.326523
878.000000	93.486895
877.000000	93.638324
876.000000	93.795473
875.000000	93.975554
874.000000	94.175444
873.000000	94.374689
872.000000	94.561967
871.000000	94.745395
870.000000	94.936358
869.000000	95.136231
868.000000	95.340417
867.000000	95.543534
866.000000	95.738770
865.000000	95.921633
864.000000	96.094829
863.000000	96.261897
862.000000	96.419215
861.000000	96.564179
860.000000	96.706900
859.000000	96.860065
858.000000	97.018494
857.000000	97.162798
856.000000	97.283357
855.000000	97.387405
854.000000	97.482422
853.000000	97.566754
852.000000	97.639237
851.000000	97.704127
850.000000	97.761738
849.000000	97.806061
848.000000	97.836616
847.000000	97.862224
846.000000	97.888461
845.000000	97.910658
844.000000	97.922562
843.000000	97.921407
842.000000	97.901049
841.000000	97.851415
840.000000	97.770251
839.000000	97.666693
838.000000	97.549129
837.000000	97.418939
836.000000	97.281242
835.000000	97.151875
834.000000	97.045912
833.000000	96.965492
832.000000	96.904374
831.000000	96.858348
830.000000	96.827619
829.000000	96.815909
828.000000	96.829711
827.000000	96.870038
826.000000	96.923146
825.000000	96.970197
824.000000	97.007598
823.000000	97.045047
822.000000	97.083075
821.000000	97.108736
820.000000	97.115017
819.000000	97.107528
818.000000	97.088402
817.000000	97.047137
816.000000	96.971922
815.000000	96.859630
814.000000	96.709963
813.000000	96.517611
812.000000	96.273469
811.000000	95.965843
810.000000	95.579336
809.000000	95.103890
808.000000	94.549019
807.000000	93.938929
806.000000	93.290314
805.000000	92.608906
804.000000	91.914166
803.000000	91.250459
802.000000	90.662236
801.000000	90.172130
800.000000	89.793097
799.000000	89.543427
798.000000	89.433787
797.000000	89.450816
796.000000	89.564380
795.000000	89.741287
794.000000	89.947830
793.000000	90.154262
792.000000	90.344786
791.000000	90.513491
790.000000	90.648180
789.000000	90.730217
788.000000	90.751519
787.000000	90.716930
786.000000	90.626299
785.000000	90.469820
784.000000	90.248447
783.000000	89.987040
782.000000	89.721568
781.000000	89.485326
780.000000	89.311589
779.000000	89.231678
778.000000	89.257949
777.000000	89.378031
776.000000	89.570862
775.000000	89.816901
774.000000	90.091043
773.000000	90.363215
772.000000	90.614386
771.000000	90.841302
770.000000	91.041556
769.000000	91.205920
768.000000	91.329644
767.000000	91.419589
766.000000	91.484973
765.000000	91.530741
764.000000	91.563753
763.000000	91.595219
762.000000	91.632937
761.000000	91.679923
760.000000	91.741549
759.000000	91.822132
758.000000	91.913176
757.000000	91.998892
756.000000	92.076759
755.000000	92.160185
754.000000	92.258473
753.000000	92.366891
752.000000	92.478093
751.000000	92.588911
750.000000	92.693737
749.000000	92.787171
748.000000	92.877726
747.000000	92.983759
746.000000	93.110593
745.000000	93.246694
744.000000	93.387679
743.000000	93.546300
742.000000	93.729260
741.000000	93.921174
740.000000	94.104572
739.000000	94.283037
738.000000	94.471190
737.000000	94.670046
736.000000	94.863759
735.000000	95.035017
734.000000	95.174970
733.000000	95.283861
732.000000	95.370135
731.000000	95.445053
730.000000	95.512311
729.000000	95.566579
728.000000	95.605404
727.000000	95.636114
726.000000	95.667556
725.000000	95.703288
724.000000	95.747585
723.000000	95.809822
722.000000	95.896422
721.000000	96.003840
720.000000	96.123617
719.000000	96.248514
718.000000	96.370440
717.000000	96.479808
716.000000	96.572040
715.000000	96.649903
714.000000	96.716094
713.000000	96.768730
712.000000	96.807226
711.000000	96.836822
710.000000	96.863561
709.000000	96.888323
708.000000	96.906841
707.000000	96.910793
706.000000	96.889147
705.000000	96.835925
704.000000	96.756328
703.000000	96.655495
702.000000	96.520465
701.000000	96.323359
700.000000	96.045819
699.000000	95.696725
698.000000	95.311117
697.000000	94.944611
696.000000	94.664623
695.000000	94.523732
694.000000	94.530002
693.000000	94.647751
692.000000	94.827729
691.000000	95.031534
690.000000	95.233191
689.000000	95.418103
688.000000	95.587971
687.000000	95.752039
686.000000	95.906569
685.000000	96.034712
684.000000	96.129294
683.000000	96.201738
682.000000	96.265481
681.000000	96.325083
680.000000	96.385458
679.000000	96.455937
678.000000	96.536800
677.000000	96.614646
676.000000	96.683024
675.000000	96.755240
674.000000	96.845424
673.000000	96.947406
672.000000	97.044373
671.000000	97.129933
670.000000	97.207373
669.000000	97.273460
668.000000	97.316726
667.000000	97.352126
666.000000	97.411588
665.000000	97.491602
664.000000	97.577702
663.000000	97.662092
662.000000	97.735014
661.000000	97.781908
660.000000	97.795590
659.000000	97.785573
658.000000	97.768396
657.000000	97.748715
656.000000	97.717584
655.000000	97.664100
654.000000	97.583606
653.000000	97.486162
652.000000	97.404276
651.000000	97.376249
650.000000	97.408812
649.000000	97.470681
648.000000	97.531900
647.000000	97.589058
646.000000	97.646030
645.000000	97.697655
644.000000	97.745769
643.000000	97.808126
642.000000	97.894427
641.000000	97.990856
640.000000	98.083759
639.000000	98.179483
638.000000	98.286824
637.000000	98.397120
636.000000	98.493572
635.000000	98.563231
634.000000	98.595130
633.000000	98.589758
632.000000	98.578972
631.000000	98.613715
630.000000	98.713343
629.000000	98.843941
628.000000	98.964826
627.000000	99.075830
626.000000	99.200888
625.000000	99.339349
624.000000	99.456819
623.000000	99.521518
622.000000	99.535651
621.000000	99.533537
620.000000	99.554579
619.000000	99.611046
618.000000	99.674637
617.000000	99.704367
616.000000	99.691261
615.000000	99.663691
614.000000	99.645772
613.000000	99.626596
612.000000	99.580959
611.000000	99.505310
610.000000	99.424729
609.000000	99.370699
608.000000	99.357974
607.000000	99.373355
606.000000	99.380318
605.000000	99.346483
604.000000	99.265593
603.000000	99.149164
602.000000	99.017604
601.000000	98.913082
600.000000	98.893450
599.000000	98.971577
598.000000	99.068613
597.000000	99.079949
596.000000	98.986835
595.000000	98.862230
594.000000	98.774466
593.000000	98.729694
592.000000	98.715009
591.000000	98.735953
590.000000	98.789104
589.000000	98.856706
588.000000	98.948100
587.000000	99.086602
586.000000	99.237518
585.000000	99.314001
584.000000	99.285640
583.000000	99.224076
582.000000	99.213539
581.000000	99.264939
580.000000	99.352820
579.000000	99.472703
578.000000	99.619111
577.000000	99.763870
576.000000	99.891210
575.000000	100.002003
574.000000	100.065591
573.000000	100.034675
572.000000	99.931325
571.000000	99.861412
570.000000	99.896383
569.000000	99.982317
568.000000	100.018816
567.000000	99.964527
566.000000	99.834491
565.000000	99.660468
564.000000	99.498131
563.000000	99.413191
562.000000	99.404184
561.000000	99.399855
560.000000	99.368252
559.000000	99.350684
558.000000	99.366434
557.000000	99.373784
556.000000	99.358098
555.000000	99.358620
554.000000	99.372572
553.000000	99.342186
552.000000	99.279252
551.000000	99.283369
550.000000	99.385485
