PE IR       SUBTECH     SPECTRUM    ASCII       PEDS        4.00        
   -1
BH1 8-1 3 10_1.asc
24/05/17
13:36:54.00
24/05/17
13:37:05.00
Administrator
?品 140 用? Administrator 日期 Friday, May 17 2024
550.000000
#HDR
-1
-1
#GR
cm-1
%T
1.0
0.0
4000.000000
-1.000000
3451
8
99.829595
92.923961
#DATA
4000.000000	99.692255
3999.000000	99.690945
3998.000000	99.690388
3997.000000	99.690862
3996.000000	99.691934
3995.000000	99.692862
3994.000000	99.693112
3993.000000	99.692462
3992.000000	99.690935
3991.000000	99.688775
3990.000000	99.686444
3989.000000	99.684533
3988.000000	99.683479
3987.000000	99.683301
3986.000000	99.683606
3985.000000	99.683789
3984.000000	99.683401
3983.000000	99.682425
3982.000000	99.681157
3981.000000	99.679800
3980.000000	99.678264
3979.000000	99.676463
3978.000000	99.674688
3977.000000	99.673532
3976.000000	99.673413
3975.000000	99.674270
3974.000000	99.675674
3973.000000	99.677111
3972.000000	99.678235
3971.000000	99.679159
3970.000000	99.680469
3969.000000	99.682658
3968.000000	99.685319
3967.000000	99.687051
3966.000000	99.686477
3965.000000	99.683297
3964.000000	99.678483
3963.000000	99.673735
3962.000000	99.670499
3961.000000	99.669289
3960.000000	99.669623
3959.000000	99.670514
3958.000000	99.671156
3957.000000	99.671261
3956.000000	99.670974
3955.000000	99.670682
3954.000000	99.670862
3953.000000	99.671744
3952.000000	99.673096
3951.000000	99.674334
3950.000000	99.674839
3949.000000	99.674243
3948.000000	99.672592
3947.000000	99.670272
3946.000000	99.667650
3945.000000	99.665020
3944.000000	99.662943
3943.000000	99.662236
3942.000000	99.663215
3941.000000	99.665025
3940.000000	99.666009
3939.000000	99.665251
3938.000000	99.663394
3937.000000	99.661914
3936.000000	99.661754
3935.000000	99.662852
3934.000000	99.664736
3933.000000	99.666894
3932.000000	99.668580
3931.000000	99.668966
3930.000000	99.667804
3929.000000	99.665771
3928.000000	99.663897
3927.000000	99.662727
3926.000000	99.662363
3925.000000	99.662965
3924.000000	99.664670
3923.000000	99.666987
3922.000000	99.668973
3921.000000	99.670176
3920.000000	99.670690
3919.000000	99.670386
3918.000000	99.668937
3917.000000	99.666703
3916.000000	99.664744
3915.000000	99.663725
3914.000000	99.663394
3913.000000	99.663353
3912.000000	99.663532
3911.000000	99.663972
3910.000000	99.664519
3909.000000	99.664969
3908.000000	99.665228
3907.000000	99.665252
3906.000000	99.665038
3905.000000	99.664664
3904.000000	99.664315
3903.000000	99.664095
3902.000000	99.663923
3901.000000	99.663718
3900.000000	99.663518
3899.000000	99.663377
3898.000000	99.663284
3897.000000	99.663213
3896.000000	99.663161
3895.000000	99.663134
3894.000000	99.663125
3893.000000	99.663127
3892.000000	99.663132
3891.000000	99.663146
3890.000000	99.663184
3889.000000	99.663258
3888.000000	99.663363
3887.000000	99.663485
3886.000000	99.663613
3885.000000	99.663741
3884.000000	99.663862
3883.000000	99.663962
3882.000000	99.664037
3881.000000	99.664100
3880.000000	99.664177
3879.000000	99.664286
3878.000000	99.664433
3877.000000	99.664610
3876.000000	99.664810
3875.000000	99.665030
3874.000000	99.665263
3873.000000	99.665499
3872.000000	99.665719
3871.000000	99.665919
3870.000000	99.666109
3869.000000	99.666312
3868.000000	99.666533
3867.000000	99.666767
3866.000000	99.667020
3865.000000	99.667311
3864.000000	99.667651
3863.000000	99.668032
3862.000000	99.668443
3861.000000	99.668881
3860.000000	99.669347
3859.000000	99.669832
3858.000000	99.670326
3857.000000	99.670819
3856.000000	99.671308
3855.000000	99.671784
3854.000000	99.672233
3853.000000	99.672655
3852.000000	99.673058
3851.000000	99.673440
3850.000000	99.673790
3849.000000	99.674109
3848.000000	99.674407
3847.000000	99.674691
3846.000000	99.674964
3845.000000	99.675219
3844.000000	99.675452
3843.000000	99.675664
3842.000000	99.675873
3841.000000	99.676099
3840.000000	99.676355
3839.000000	99.676634
3838.000000	99.676917
3837.000000	99.677188
3836.000000	99.677444
3835.000000	99.677689
3834.000000	99.677929
3833.000000	99.678166
3832.000000	99.678397
3831.000000	99.678624
3830.000000	99.678850
3829.000000	99.679084
3828.000000	99.679331
3827.000000	99.679591
3826.000000	99.679860
3825.000000	99.680128
3824.000000	99.680376
3823.000000	99.680575
3822.000000	99.680704
3821.000000	99.680773
3820.000000	99.680812
3819.000000	99.680840
3818.000000	99.680854
3817.000000	99.680848
3816.000000	99.680829
3815.000000	99.680804
3814.000000	99.680771
3813.000000	99.680719
3812.000000	99.680653
3811.000000	99.680584
3810.000000	99.680519
3809.000000	99.680455
3808.000000	99.680392
3807.000000	99.680345
3806.000000	99.680327
3805.000000	99.680337
3804.000000	99.680357
3803.000000	99.680379
3802.000000	99.680412
3801.000000	99.680466
3800.000000	99.680536
3799.000000	99.680597
3798.000000	99.680631
3797.000000	99.680645
3796.000000	99.680665
3795.000000	99.680714
3794.000000	99.680803
3793.000000	99.680932
3792.000000	99.681091
3791.000000	99.681270
3790.000000	99.681466
3789.000000	99.681683
3788.000000	99.681919
3787.000000	99.682154
3786.000000	99.682362
3785.000000	99.682526
3784.000000	99.682650
3783.000000	99.682742
3782.000000	99.682811
3781.000000	99.682876
3780.000000	99.682956
3779.000000	99.683061
3778.000000	99.683186
3777.000000	99.683312
3776.000000	99.683431
3775.000000	99.683539
3774.000000	99.683632
3773.000000	99.683707
3772.000000	99.683763
3771.000000	99.683806
3770.000000	99.683845
3769.000000	99.683878
3768.000000	99.683896
3767.000000	99.683895
3766.000000	99.683880
3765.000000	99.683856
3764.000000	99.683815
3763.000000	99.683743
3762.000000	99.683635
3761.000000	99.683498
3760.000000	99.683343
3759.000000	99.683169
3758.000000	99.682971
3757.000000	99.682751
3756.000000	99.682516
3755.000000	99.682266
3754.000000	99.681986
3753.000000	99.681659
3752.000000	99.681262
3751.000000	99.680772
3750.000000	99.680187
3749.000000	99.679525
3748.000000	99.678805
3747.000000	99.678026
3746.000000	99.677177
3745.000000	99.676263
3744.000000	99.675314
3743.000000	99.674359
3742.000000	99.673396
3741.000000	99.672404
3740.000000	99.671379
3739.000000	99.670325
3738.000000	99.669240
3737.000000	99.668117
3736.000000	99.666954
3735.000000	99.665752
3734.000000	99.664511
3733.000000	99.663231
3732.000000	99.661916
3731.000000	99.660571
3730.000000	99.659187
3729.000000	99.657751
3728.000000	99.656255
3727.000000	99.654701
3726.000000	99.653095
3725.000000	99.651439
3724.000000	99.649745
3723.000000	99.647969
3722.000000	99.646119
3721.000000	99.644360
3720.000000	99.642866
3719.000000	99.641570
3718.000000	99.640188
3717.000000	99.638506
3716.000000	99.636486
3715.000000	99.634048
3714.000000	99.631327
3713.000000	99.628752
3712.000000	99.626289
3711.000000	99.623258
3710.000000	99.619258
3709.000000	99.614634
3708.000000	99.610171
3707.000000	99.606652
3706.000000	99.604314
3705.000000	99.602490
3704.000000	99.600097
3703.000000	99.596574
3702.000000	99.592269
3701.000000	99.588228
3700.000000	99.585150
3699.000000	99.582332
3698.000000	99.578776
3697.000000	99.574996
3696.000000	99.572374
3695.000000	99.570974
3694.000000	99.569292
3693.000000	99.566298
3692.000000	99.562071
3691.000000	99.556538
3690.000000	99.549272
3689.000000	99.541064
3688.000000	99.534319
3687.000000	99.529986
3686.000000	99.526226
3685.000000	99.521321
3684.000000	99.515730
3683.000000	99.510540
3682.000000	99.505627
3681.000000	99.500073
3680.000000	99.493937
3679.000000	99.488049
3678.000000	99.482527
3677.000000	99.476702
3676.000000	99.470202
3675.000000	99.463847
3674.000000	99.458383
3673.000000	99.453024
3672.000000	99.446974
3671.000000	99.440643
3670.000000	99.434787
3669.000000	99.429666
3668.000000	99.424838
3667.000000	99.419631
3666.000000	99.414027
3665.000000	99.408489
3664.000000	99.403157
3663.000000	99.397523
3662.000000	99.390981
3661.000000	99.383572
3660.000000	99.376224
3659.000000	99.369871
3658.000000	99.364663
3657.000000	99.359863
3656.000000	99.354872
3655.000000	99.349802
3654.000000	99.343875
3653.000000	99.335973
3652.000000	99.327649
3651.000000	99.322375
3650.000000	99.320737
3649.000000	99.318677
3648.000000	99.313146
3647.000000	99.305935
3646.000000	99.299729
3645.000000	99.294846
3644.000000	99.290361
3643.000000	99.286293
3642.000000	99.283331
3641.000000	99.280909
3640.000000	99.276824
3639.000000	99.269658
3638.000000	99.261350
3637.000000	99.255285
3636.000000	99.252491
3635.000000	99.251187
3634.000000	99.249669
3633.000000	99.247390
3632.000000	99.243178
3631.000000	99.236332
3630.000000	99.228804
3629.000000	99.224291
3628.000000	99.225953
3627.000000	99.231808
3626.000000	99.234487
3625.000000	99.231462
3624.000000	99.226534
3623.000000	99.223141
3622.000000	99.221725
3621.000000	99.221994
3620.000000	99.224321
3619.000000	99.228010
3618.000000	99.231262
3617.000000	99.232474
3616.000000	99.231251
3615.000000	99.229313
3614.000000	99.229897
3613.000000	99.235125
3612.000000	99.243752
3611.000000	99.251524
3610.000000	99.254741
3609.000000	99.253462
3608.000000	99.250933
3607.000000	99.250306
3606.000000	99.251992
3605.000000	99.254631
3604.000000	99.257495
3603.000000	99.260471
3602.000000	99.263124
3601.000000	99.264728
3600.000000	99.265145
3599.000000	99.264531
3598.000000	99.263430
3597.000000	99.262917
3596.000000	99.263851
3595.000000	99.265815
3594.000000	99.267429
3593.000000	99.267493
3592.000000	99.265765
3591.000000	99.263193
3590.000000	99.261576
3589.000000	99.262550
3588.000000	99.266036
3587.000000	99.270071
3586.000000	99.272487
3585.000000	99.272444
3584.000000	99.270699
3583.000000	99.268881
3582.000000	99.268137
3581.000000	99.268277
3580.000000	99.268325
3579.000000	99.267595
3578.000000	99.266188
3577.000000	99.264769
3576.000000	99.263875
3575.000000	99.263485
3574.000000	99.263080
3573.000000	99.262146
3572.000000	99.260551
3571.000000	99.258575
3570.000000	99.256723
3569.000000	99.255464
3568.000000	99.254874
3567.000000	99.254456
3566.000000	99.253655
3565.000000	99.252431
3564.000000	99.251058
3563.000000	99.249782
3562.000000	99.248556
3561.000000	99.247151
3560.000000	99.245513
3559.000000	99.243906
3558.000000	99.242630
3557.000000	99.241728
3556.000000	99.240985
3555.000000	99.240116
3554.000000	99.238957
3553.000000	99.237512
3552.000000	99.235929
3551.000000	99.234393
3550.000000	99.232996
3549.000000	99.231793
3548.000000	99.230889
3547.000000	99.230288
3546.000000	99.229621
3545.000000	99.228461
3544.000000	99.226841
3543.000000	99.225188
3542.000000	99.223827
3541.000000	99.222665
3540.000000	99.221376
3539.000000	99.219798
3538.000000	99.218148
3537.000000	99.216815
3536.000000	99.216079
3535.000000	99.215942
3534.000000	99.216163
3533.000000	99.216275
3532.000000	99.215703
3531.000000	99.214136
3530.000000	99.211968
3529.000000	99.210319
3528.000000	99.210146
3527.000000	99.211284
3526.000000	99.212458
3525.000000	99.212418
3524.000000	99.210817
3523.000000	99.207994
3522.000000	99.204430
3521.000000	99.200595
3520.000000	99.197040
3519.000000	99.194333
3518.000000	99.193030
3517.000000	99.193655
3516.000000	99.196464
3515.000000	99.200952
3514.000000	99.205687
3513.000000	99.208988
3512.000000	99.209961
3511.000000	99.208898
3510.000000	99.206877
3509.000000	99.204963
3508.000000	99.203577
3507.000000	99.202386
3506.000000	99.200764
3505.000000	99.198513
3504.000000	99.196002
3503.000000	99.193610
3502.000000	99.191325
3501.000000	99.189206
3500.000000	99.187928
3499.000000	99.188264
3498.000000	99.190065
3497.000000	99.192078
3496.000000	99.193043
3495.000000	99.192805
3494.000000	99.192088
3493.000000	99.191376
3492.000000	99.190412
3491.000000	99.188784
3490.000000	99.186607
3489.000000	99.184483
3488.000000	99.182965
3487.000000	99.182202
3486.000000	99.182000
3485.000000	99.182015
3484.000000	99.181910
3483.000000	99.181493
3482.000000	99.180791
3481.000000	99.179985
3480.000000	99.179204
3479.000000	99.178434
3478.000000	99.177610
3477.000000	99.176711
3476.000000	99.175730
3475.000000	99.174639
3474.000000	99.173447
3473.000000	99.172238
3472.000000	99.171115
3471.000000	99.170106
3470.000000	99.169148
3469.000000	99.168166
3468.000000	99.167147
3467.000000	99.166125
3466.000000	99.165138
3465.000000	99.164202
3464.000000	99.163303
3463.000000	99.162425
3462.000000	99.161544
3461.000000	99.160642
3460.000000	99.159710
3459.000000	99.158751
3458.000000	99.157776
3457.000000	99.156799
3456.000000	99.155835
3455.000000	99.154892
3454.000000	99.153952
3453.000000	99.152989
3452.000000	99.151992
3451.000000	99.150985
3450.000000	99.150002
3449.000000	99.149053
3448.000000	99.148111
3447.000000	99.147152
3446.000000	99.146197
3445.000000	99.145293
3444.000000	99.144453
3443.000000	99.143627
3442.000000	99.142731
3441.000000	99.141714
3440.000000	99.140583
3439.000000	99.139388
3438.000000	99.138212
3437.000000	99.137155
3436.000000	99.136287
3435.000000	99.135566
3434.000000	99.134814
3433.000000	99.133830
3432.000000	99.132530
3431.000000	99.130965
3430.000000	99.129290
3429.000000	99.127745
3428.000000	99.126605
3427.000000	99.125998
3426.000000	99.125772
3425.000000	99.125578
3424.000000	99.125184
3423.000000	99.124652
3422.000000	99.124204
3421.000000	99.123889
3420.000000	99.123370
3419.000000	99.122173
3418.000000	99.120152
3417.000000	99.117801
3416.000000	99.116023
3415.000000	99.115368
3414.000000	99.115644
3413.000000	99.116051
3412.000000	99.115960
3411.000000	99.115408
3410.000000	99.114841
3409.000000	99.114571
3408.000000	99.114506
3407.000000	99.114330
3406.000000	99.113890
3405.000000	99.113309
3404.000000	99.112730
3403.000000	99.112086
3402.000000	99.111330
3401.000000	99.110822
3400.000000	99.111132
3399.000000	99.112359
3398.000000	99.113909
3397.000000	99.115013
3396.000000	99.115409
3395.000000	99.115360
3394.000000	99.115248
3393.000000	99.115311
3392.000000	99.115648
3391.000000	99.116267
3390.000000	99.117048
3389.000000	99.117776
3388.000000	99.118331
3387.000000	99.118799
3386.000000	99.119369
3385.000000	99.120135
3384.000000	99.121058
3383.000000	99.122037
3382.000000	99.122969
3381.000000	99.123760
3380.000000	99.124356
3379.000000	99.124813
3378.000000	99.125304
3377.000000	99.125975
3376.000000	99.126814
3375.000000	99.127697
3374.000000	99.128585
3373.000000	99.129586
3372.000000	99.130768
3371.000000	99.132038
3370.000000	99.133235
3369.000000	99.134281
3368.000000	99.135226
3367.000000	99.136166
3366.000000	99.137171
3365.000000	99.138262
3364.000000	99.139430
3363.000000	99.140635
3362.000000	99.141807
3361.000000	99.142888
3360.000000	99.143879
3359.000000	99.144837
3358.000000	99.145828
3357.000000	99.146889
3356.000000	99.148014
3355.000000	99.149132
3354.000000	99.150140
3353.000000	99.150982
3352.000000	99.151736
3351.000000	99.152584
3350.000000	99.153654
3349.000000	99.154904
3348.000000	99.156137
3347.000000	99.157216
3346.000000	99.158205
3345.000000	99.159297
3344.000000	99.160621
3343.000000	99.162147
3342.000000	99.163718
3341.000000	99.165129
3340.000000	99.166221
3339.000000	99.166959
3338.000000	99.167484
3337.000000	99.168038
3336.000000	99.168761
3335.000000	99.169554
3334.000000	99.170190
3333.000000	99.170575
3332.000000	99.170887
3331.000000	99.171418
3330.000000	99.172299
3329.000000	99.173448
3328.000000	99.174711
3327.000000	99.175961
3326.000000	99.177068
3325.000000	99.177891
3324.000000	99.178330
3323.000000	99.178388
3322.000000	99.178217
3321.000000	99.178156
3320.000000	99.178621
3319.000000	99.179879
3318.000000	99.181843
3317.000000	99.184049
3316.000000	99.185849
3315.000000	99.186695
3314.000000	99.186445
3313.000000	99.185613
3312.000000	99.185168
3311.000000	99.185759
3310.000000	99.187090
3309.000000	99.188180
3308.000000	99.188403
3307.000000	99.188185
3306.000000	99.188572
3305.000000	99.190151
3304.000000	99.192429
3303.000000	99.194175
3302.000000	99.194395
3301.000000	99.193035
3300.000000	99.190966
3299.000000	99.189237
3298.000000	99.188268
3297.000000	99.187781
3296.000000	99.187388
3295.000000	99.187150
3294.000000	99.187537
3293.000000	99.188950
3292.000000	99.191408
3291.000000	99.194585
3290.000000	99.197857
3289.000000	99.200433
3288.000000	99.201762
3287.000000	99.202034
3286.000000	99.202177
3285.000000	99.203149
3284.000000	99.205157
3283.000000	99.207643
3282.000000	99.209965
3281.000000	99.211913
3280.000000	99.213538
3279.000000	99.214790
3278.000000	99.215530
3277.000000	99.215770
3276.000000	99.215720
3275.000000	99.215650
3274.000000	99.215789
3273.000000	99.216337
3272.000000	99.217471
3271.000000	99.219301
3270.000000	99.221780
3269.000000	99.224503
3268.000000	99.226664
3267.000000	99.227556
3266.000000	99.227210
3265.000000	99.226457
3264.000000	99.226214
3263.000000	99.226767
3262.000000	99.227912
3261.000000	99.229440
3260.000000	99.231228
3259.000000	99.233001
3258.000000	99.234377
3257.000000	99.235224
3256.000000	99.235791
3255.000000	99.236473
3254.000000	99.237487
3253.000000	99.238769
3252.000000	99.240092
3251.000000	99.241236
3250.000000	99.242150
3249.000000	99.242997
3248.000000	99.244006
3247.000000	99.245243
3246.000000	99.246598
3245.000000	99.248000
3244.000000	99.249529
3243.000000	99.251192
3242.000000	99.252752
3241.000000	99.253922
3240.000000	99.254739
3239.000000	99.255580
3238.000000	99.256700
3237.000000	99.257889
3236.000000	99.258734
3235.000000	99.259152
3234.000000	99.259570
3233.000000	99.260564
3232.000000	99.262375
3231.000000	99.264791
3230.000000	99.267319
3229.000000	99.269443
3228.000000	99.270802
3227.000000	99.271327
3226.000000	99.271318
3225.000000	99.271294
3224.000000	99.271677
3223.000000	99.272651
3222.000000	99.274298
3221.000000	99.276643
3220.000000	99.279414
3219.000000	99.281992
3218.000000	99.283891
3217.000000	99.285186
3216.000000	99.286328
3215.000000	99.287647
3214.000000	99.289202
3213.000000	99.290998
3212.000000	99.293044
3211.000000	99.295159
3210.000000	99.296983
3209.000000	99.298169
3208.000000	99.298405
3207.000000	99.297416
3206.000000	99.295328
3205.000000	99.293076
3204.000000	99.291940
3203.000000	99.292428
3202.000000	99.293944
3201.000000	99.295655
3200.000000	99.297515
3199.000000	99.300199
3198.000000	99.304133
3197.000000	99.308819
3196.000000	99.313095
3195.000000	99.315996
3194.000000	99.317365
3193.000000	99.317738
3192.000000	99.317688
3191.000000	99.317371
3190.000000	99.316842
3189.000000	99.316556
3188.000000	99.317140
3187.000000	99.318773
3186.000000	99.321079
3185.000000	99.323531
3184.000000	99.325678
3183.000000	99.327119
3182.000000	99.327746
3181.000000	99.328101
3180.000000	99.329016
3179.000000	99.330653
3178.000000	99.332326
3177.000000	99.333480
3176.000000	99.334449
3175.000000	99.335876
3174.000000	99.337798
3173.000000	99.339796
3172.000000	99.341761
3171.000000	99.343949
3170.000000	99.346358
3169.000000	99.348557
3168.000000	99.350260
3167.000000	99.351697
3166.000000	99.353223
3165.000000	99.354781
3164.000000	99.355967
3163.000000	99.356526
3162.000000	99.356566
3161.000000	99.356447
3160.000000	99.356650
3159.000000	99.357611
3158.000000	99.359505
3157.000000	99.362083
3156.000000	99.364678
3155.000000	99.366636
3154.000000	99.367824
3153.000000	99.368688
3152.000000	99.369815
3151.000000	99.371341
3150.000000	99.372859
3149.000000	99.373896
3148.000000	99.374397
3147.000000	99.374768
3146.000000	99.375482
3145.000000	99.376739
3144.000000	99.378434
3143.000000	99.380253
3142.000000	99.381900
3141.000000	99.383356
3140.000000	99.384892
3139.000000	99.386731
3138.000000	99.388756
3137.000000	99.390692
3136.000000	99.392513
3135.000000	99.394412
3134.000000	99.396309
3133.000000	99.397678
3132.000000	99.398133
3131.000000	99.398004
3130.000000	99.398077
3129.000000	99.398807
3128.000000	99.400010
3127.000000	99.401393
3126.000000	99.402970
3125.000000	99.404788
3124.000000	99.406641
3123.000000	99.408310
3122.000000	99.409870
3121.000000	99.411542
3120.000000	99.413344
3119.000000	99.415133
3118.000000	99.416914
3117.000000	99.418799
3116.000000	99.420645
3115.000000	99.422086
3114.000000	99.423027
3113.000000	99.423866
3112.000000	99.425100
3111.000000	99.426772
3110.000000	99.428418
3109.000000	99.429479
3108.000000	99.429772
3107.000000	99.429618
3106.000000	99.429669
3105.000000	99.430450
3104.000000	99.431968
3103.000000	99.433731
3102.000000	99.435157
3101.000000	99.436074
3100.000000	99.436741
3099.000000	99.437461
3098.000000	99.438303
3097.000000	99.439166
3096.000000	99.439950
3095.000000	99.440621
3094.000000	99.441296
3093.000000	99.442210
3092.000000	99.443426
3091.000000	99.444550
3090.000000	99.445048
3089.000000	99.444966
3088.000000	99.445153
3087.000000	99.446460
3086.000000	99.448944
3085.000000	99.451885
3084.000000	99.454381
3083.000000	99.455944
3082.000000	99.456578
3081.000000	99.456703
3080.000000	99.456960
3079.000000	99.457728
3078.000000	99.458809
3077.000000	99.459662
3076.000000	99.460049
3075.000000	99.460355
3074.000000	99.461218
3073.000000	99.462893
3072.000000	99.464986
3071.000000	99.466730
3070.000000	99.467599
3069.000000	99.467790
3068.000000	99.468158
3067.000000	99.469529
3066.000000	99.472019
3065.000000	99.474999
3064.000000	99.477689
3063.000000	99.479642
3062.000000	99.480678
3061.000000	99.480722
3060.000000	99.479930
3059.000000	99.478810
3058.000000	99.477953
3057.000000	99.477534
3056.000000	99.477274
3055.000000	99.476971
3054.000000	99.476905
3053.000000	99.477528
3052.000000	99.478767
3051.000000	99.479841
3050.000000	99.480003
3049.000000	99.479354
3048.000000	99.478750
3047.000000	99.478912
3046.000000	99.479785
3045.000000	99.480779
3044.000000	99.481391
3043.000000	99.481576
3042.000000	99.481668
3041.000000	99.481900
3040.000000	99.481928
3039.000000	99.480988
3038.000000	99.478847
3037.000000	99.476524
3036.000000	99.475624
3035.000000	99.476760
3034.000000	99.479053
3033.000000	99.481134
3032.000000	99.482439
3031.000000	99.483160
3030.000000	99.483419
3029.000000	99.483140
3028.000000	99.482592
3027.000000	99.482439
3026.000000	99.482930
3025.000000	99.483351
3024.000000	99.482627
3023.000000	99.480385
3022.000000	99.477273
3021.000000	99.474385
3020.000000	99.472439
3019.000000	99.471379
3018.000000	99.470592
3017.000000	99.469398
3016.000000	99.467457
3015.000000	99.464995
3014.000000	99.462802
3013.000000	99.461870
3012.000000	99.462697
3011.000000	99.464804
3010.000000	99.466962
3009.000000	99.467935
3008.000000	99.466988
3007.000000	99.464120
3006.000000	99.460344
3005.000000	99.457419
3004.000000	99.456513
3003.000000	99.456996
3002.000000	99.457046
3001.000000	99.455547
3000.000000	99.452930
2999.000000	99.450318
2998.000000	99.448609
2997.000000	99.448370
2996.000000	99.449633
2995.000000	99.451319
2994.000000	99.451607
2993.000000	99.449351
2992.000000	99.444802
2991.000000	99.438932
2990.000000	99.432745
2989.000000	99.427401
2988.000000	99.423852
2987.000000	99.421812
2986.000000	99.419879
2985.000000	99.417182
2984.000000	99.414218
2983.000000	99.411684
2982.000000	99.409479
2981.000000	99.407408
2980.000000	99.405863
2979.000000	99.404917
2978.000000	99.403692
2977.000000	99.401629
2976.000000	99.399702
2975.000000	99.399304
2974.000000	99.400488
2973.000000	99.402247
2972.000000	99.403983
2971.000000	99.405715
2970.000000	99.407275
2969.000000	99.408406
2968.000000	99.409483
2967.000000	99.411233
2966.000000	99.413753
2965.000000	99.416355
2964.000000	99.418235
2963.000000	99.418926
2962.000000	99.418417
2961.000000	99.417411
2960.000000	99.417172
2959.000000	99.418295
2958.000000	99.419680
2957.000000	99.419373
2956.000000	99.416640
2955.000000	99.412968
2954.000000	99.410969
2953.000000	99.412214
2952.000000	99.416039
2951.000000	99.420077
2950.000000	99.422199
2949.000000	99.422168
2948.000000	99.421265
2947.000000	99.420510
2946.000000	99.419694
2945.000000	99.418379
2944.000000	99.417041
2943.000000	99.416547
2942.000000	99.416880
2941.000000	99.417146
2940.000000	99.416788
2939.000000	99.416282
2938.000000	99.416577
2937.000000	99.418177
2936.000000	99.420720
2935.000000	99.423097
2934.000000	99.424012
2933.000000	99.422736
2932.000000	99.419522
2931.000000	99.415437
2930.000000	99.411924
2929.000000	99.410360
2928.000000	99.411331
2927.000000	99.413768
2926.000000	99.415212
2925.000000	99.413869
2924.000000	99.410380
2923.000000	99.407236
2922.000000	99.406638
2921.000000	99.409194
2920.000000	99.413976
2919.000000	99.418984
2918.000000	99.422238
2917.000000	99.423387
2916.000000	99.424029
2915.000000	99.425758
2914.000000	99.428259
2913.000000	99.430199
2912.000000	99.431525
2911.000000	99.433607
2910.000000	99.437148
2909.000000	99.441197
2908.000000	99.444447
2907.000000	99.446495
2906.000000	99.447551
2905.000000	99.447839
2904.000000	99.447786
2903.000000	99.448176
2902.000000	99.449579
2901.000000	99.451853
2900.000000	99.454483
2899.000000	99.456973
2898.000000	99.459076
2897.000000	99.461064
2896.000000	99.463706
2895.000000	99.467401
2894.000000	99.471378
2893.000000	99.474414
2892.000000	99.476311
2891.000000	99.477955
2890.000000	99.479930
2889.000000	99.481846
2888.000000	99.483218
2887.000000	99.484125
2886.000000	99.484681
2885.000000	99.484646
2884.000000	99.483976
2883.000000	99.483183
2882.000000	99.482806
2881.000000	99.482962
2880.000000	99.483777
2879.000000	99.485649
2878.000000	99.488554
2877.000000	99.491487
2876.000000	99.493244
2875.000000	99.493819
2874.000000	99.494621
2873.000000	99.497046
2872.000000	99.501072
2871.000000	99.505232
2870.000000	99.507937
2869.000000	99.508871
2868.000000	99.509156
2867.000000	99.510250
2866.000000	99.512481
2865.000000	99.514785
2864.000000	99.515881
2863.000000	99.515567
2862.000000	99.514856
2861.000000	99.515063
2860.000000	99.516874
2859.000000	99.520154
2858.000000	99.524182
2857.000000	99.528043
2856.000000	99.531070
2855.000000	99.533091
2854.000000	99.534374
2853.000000	99.535403
2852.000000	99.536652
2851.000000	99.538383
2850.000000	99.540565
2849.000000	99.543034
2848.000000	99.545806
2847.000000	99.549166
2846.000000	99.553314
2845.000000	99.557960
2844.000000	99.562358
2843.000000	99.565775
2842.000000	99.567946
2841.000000	99.569151
2840.000000	99.569987
2839.000000	99.571063
2838.000000	99.572872
2837.000000	99.575715
2836.000000	99.579440
2835.000000	99.583139
2834.000000	99.585505
2833.000000	99.585904
2832.000000	99.585127
2831.000000	99.584853
2830.000000	99.586037
2829.000000	99.588163
2828.000000	99.590194
2827.000000	99.591911
2826.000000	99.593893
2825.000000	99.596327
2824.000000	99.598513
2823.000000	99.599797
2822.000000	99.600501
2821.000000	99.601548
2820.000000	99.603342
2819.000000	99.605525
2818.000000	99.607725
2817.000000	99.610003
2816.000000	99.612446
2815.000000	99.614734
2814.000000	99.616465
2813.000000	99.617625
2812.000000	99.618440
2811.000000	99.618964
2810.000000	99.619163
2809.000000	99.619291
2808.000000	99.619765
2807.000000	99.620663
2806.000000	99.621710
2805.000000	99.622774
2804.000000	99.624081
2803.000000	99.625842
2802.000000	99.627920
2801.000000	99.629913
2800.000000	99.631414
2799.000000	99.632166
2798.000000	99.632200
2797.000000	99.631965
2796.000000	99.632131
2795.000000	99.633041
2794.000000	99.634517
2793.000000	99.636251
2792.000000	99.638197
2791.000000	99.640335
2790.000000	99.642237
2789.000000	99.643340
2788.000000	99.643546
2787.000000	99.643325
2786.000000	99.643198
2785.000000	99.643301
2784.000000	99.643539
2783.000000	99.643818
2782.000000	99.644077
2781.000000	99.644337
2780.000000	99.644785
2779.000000	99.645638
2778.000000	99.646894
2777.000000	99.648312
2776.000000	99.649634
2775.000000	99.650698
2774.000000	99.651335
2773.000000	99.651401
2772.000000	99.650999
2771.000000	99.650621
2770.000000	99.650925
2769.000000	99.652274
2768.000000	99.654444
2767.000000	99.656610
2766.000000	99.657941
2765.000000	99.658305
2764.000000	99.658276
2763.000000	99.658495
2762.000000	99.659070
2761.000000	99.659816
2760.000000	99.660759
2759.000000	99.662058
2758.000000	99.663560
2757.000000	99.664780
2756.000000	99.665410
2755.000000	99.665595
2754.000000	99.665637
2753.000000	99.665664
2752.000000	99.665631
2751.000000	99.665452
2750.000000	99.665118
2749.000000	99.664765
2748.000000	99.664566
2747.000000	99.664520
2746.000000	99.664515
2745.000000	99.664650
2744.000000	99.665256
2743.000000	99.666446
2742.000000	99.667807
2741.000000	99.668768
2740.000000	99.669205
2739.000000	99.669444
2738.000000	99.669803
2737.000000	99.670281
2736.000000	99.670688
2735.000000	99.670892
2734.000000	99.670898
2733.000000	99.670847
2732.000000	99.670934
2731.000000	99.671248
2730.000000	99.671659
2729.000000	99.671936
2728.000000	99.671990
2727.000000	99.671964
2726.000000	99.672111
2725.000000	99.672580
2724.000000	99.673356
2723.000000	99.674251
2722.000000	99.674976
2721.000000	99.675368
2720.000000	99.675506
2719.000000	99.675625
2718.000000	99.675852
2717.000000	99.676091
2716.000000	99.676232
2715.000000	99.676349
2714.000000	99.676606
2713.000000	99.677056
2712.000000	99.677596
2711.000000	99.678065
2710.000000	99.678404
2709.000000	99.678659
2708.000000	99.678851
2707.000000	99.678911
2706.000000	99.678790
2705.000000	99.678588
2704.000000	99.678536
2703.000000	99.678798
2702.000000	99.679316
2701.000000	99.679834
2700.000000	99.680117
2699.000000	99.680086
2698.000000	99.679775
2697.000000	99.679306
2696.000000	99.678935
2695.000000	99.678995
2694.000000	99.679637
2693.000000	99.680654
2692.000000	99.681621
2691.000000	99.682225
2690.000000	99.682422
2689.000000	99.682350
2688.000000	99.682207
2687.000000	99.682163
2686.000000	99.682263
2685.000000	99.682418
2684.000000	99.682448
2683.000000	99.682075
2682.000000	99.681048
2681.000000	99.679534
2680.000000	99.678278
2679.000000	99.678016
2678.000000	99.678600
2677.000000	99.678962
2676.000000	99.678174
2675.000000	99.676294
2674.000000	99.674137
2673.000000	99.672475
2672.000000	99.671673
2671.000000	99.671876
2670.000000	99.672988
2669.000000	99.674451
2668.000000	99.675460
2667.000000	99.675598
2666.000000	99.675088
2665.000000	99.674409
2664.000000	99.673850
2663.000000	99.673511
2662.000000	99.673520
2661.000000	99.673986
2660.000000	99.674774
2659.000000	99.675510
2658.000000	99.675888
2657.000000	99.675887
2656.000000	99.675674
2655.000000	99.675382
2654.000000	99.675009
2653.000000	99.674491
2652.000000	99.673828
2651.000000	99.673207
2650.000000	99.673029
2649.000000	99.673688
2648.000000	99.675197
2647.000000	99.676958
2646.000000	99.678117
2645.000000	99.678282
2644.000000	99.677730
2643.000000	99.677044
2642.000000	99.676530
2641.000000	99.676143
2640.000000	99.675880
2639.000000	99.675918
2638.000000	99.676335
2637.000000	99.676881
2636.000000	99.677195
2635.000000	99.677190
2634.000000	99.677087
2633.000000	99.677092
2632.000000	99.677185
2631.000000	99.677253
2630.000000	99.677356
2629.000000	99.677710
2628.000000	99.678390
2627.000000	99.679145
2626.000000	99.679605
2625.000000	99.679635
2624.000000	99.679354
2623.000000	99.678853
2622.000000	99.678103
2621.000000	99.677187
2620.000000	99.676361
2619.000000	99.675801
2618.000000	99.675477
2617.000000	99.675337
2616.000000	99.675424
2615.000000	99.675669
2614.000000	99.675859
2613.000000	99.675981
2612.000000	99.676362
2611.000000	99.677228
2610.000000	99.678249
2609.000000	99.678770
2608.000000	99.678491
2607.000000	99.677741
2606.000000	99.677219
2605.000000	99.677435
2604.000000	99.678341
2603.000000	99.679330
2602.000000	99.679676
2601.000000	99.679116
2600.000000	99.677970
2599.000000	99.676795
2598.000000	99.675954
2597.000000	99.675619
2596.000000	99.675905
2595.000000	99.676689
2594.000000	99.677473
2593.000000	99.677788
2592.000000	99.677717
2591.000000	99.677741
2590.000000	99.678065
2589.000000	99.678396
2588.000000	99.678372
2587.000000	99.677888
2586.000000	99.677008
2585.000000	99.675882
2584.000000	99.674805
2583.000000	99.674041
2582.000000	99.673590
2581.000000	99.673363
2580.000000	99.673465
2579.000000	99.673998
2578.000000	99.674638
2577.000000	99.674794
2576.000000	99.674194
2575.000000	99.673006
2574.000000	99.671473
2573.000000	99.669838
2572.000000	99.668565
2571.000000	99.668147
2570.000000	99.668529
2569.000000	99.669072
2568.000000	99.669226
2567.000000	99.669008
2566.000000	99.668802
2565.000000	99.668956
2564.000000	99.669551
2563.000000	99.670202
2562.000000	99.670128
2561.000000	99.668869
2560.000000	99.667012
2559.000000	99.665864
2558.000000	99.666193
2557.000000	99.667679
2556.000000	99.669480
2555.000000	99.671007
2554.000000	99.672073
2553.000000	99.672685
2552.000000	99.673022
2551.000000	99.673347
2550.000000	99.673718
2549.000000	99.673933
2548.000000	99.673862
2547.000000	99.673580
2546.000000	99.673109
2545.000000	99.672342
2544.000000	99.671392
2543.000000	99.670763
2542.000000	99.670914
2541.000000	99.671771
2540.000000	99.672786
2539.000000	99.673394
2538.000000	99.673373
2537.000000	99.672855
2536.000000	99.672210
2535.000000	99.671856
2534.000000	99.671987
2533.000000	99.672443
2532.000000	99.672878
2531.000000	99.673061
2530.000000	99.672956
2529.000000	99.672602
2528.000000	99.672055
2527.000000	99.671499
2526.000000	99.671271
2525.000000	99.671671
2524.000000	99.672683
2523.000000	99.673877
2522.000000	99.674653
2521.000000	99.674712
2520.000000	99.674263
2519.000000	99.673794
2518.000000	99.673581
2517.000000	99.673526
2516.000000	99.673529
2515.000000	99.673794
2514.000000	99.674593
2513.000000	99.675850
2512.000000	99.677059
2511.000000	99.677708
2510.000000	99.677668
2509.000000	99.677166
2508.000000	99.676496
2507.000000	99.675811
2506.000000	99.675164
2505.000000	99.674623
2504.000000	99.674247
2503.000000	99.673967
2502.000000	99.673614
2501.000000	99.673204
2500.000000	99.673104
2499.000000	99.673704
2498.000000	99.674928
2497.000000	99.676181
2496.000000	99.676827
2495.000000	99.676676
2494.000000	99.675969
2493.000000	99.675181
2492.000000	99.674755
2491.000000	99.674901
2490.000000	99.675517
2489.000000	99.676290
2488.000000	99.676943
2487.000000	99.677397
2486.000000	99.677700
2485.000000	99.677924
2484.000000	99.678132
2483.000000	99.678375
2482.000000	99.678662
2481.000000	99.678981
2480.000000	99.679361
2479.000000	99.679836
2478.000000	99.680345
2477.000000	99.680744
2476.000000	99.680942
2475.000000	99.680978
2474.000000	99.680983
2473.000000	99.681086
2472.000000	99.681335
2471.000000	99.681682
2470.000000	99.682032
2469.000000	99.682355
2468.000000	99.682696
2467.000000	99.683086
2466.000000	99.683490
2465.000000	99.683831
2464.000000	99.684076
2463.000000	99.684264
2462.000000	99.684469
2461.000000	99.684712
2460.000000	99.684963
2459.000000	99.685193
2458.000000	99.685387
2457.000000	99.685544
2456.000000	99.685675
2455.000000	99.685805
2454.000000	99.685956
2453.000000	99.686134
2452.000000	99.686324
2451.000000	99.686512
2450.000000	99.686696
2449.000000	99.686874
2448.000000	99.687044
2447.000000	99.687200
2446.000000	99.687340
2445.000000	99.687469
2444.000000	99.687596
2443.000000	99.687728
2442.000000	99.687866
2441.000000	99.688005
2440.000000	99.688140
2439.000000	99.688270
2438.000000	99.688391
2437.000000	99.688499
2436.000000	99.688588
2435.000000	99.688661
2434.000000	99.688725
2433.000000	99.688791
2432.000000	99.688866
2431.000000	99.688945
2430.000000	99.689005
2429.000000	99.689024
2428.000000	99.689002
2427.000000	99.688958
2426.000000	99.688912
2425.000000	99.688874
2424.000000	99.688857
2423.000000	99.688887
2422.000000	99.688970
2421.000000	99.689079
2420.000000	99.689169
2419.000000	99.689227
2418.000000	99.689283
2417.000000	99.689387
2416.000000	99.689554
2415.000000	99.689750
2414.000000	99.689928
2413.000000	99.690068
2412.000000	99.690187
2411.000000	99.690320
2410.000000	99.690496
2409.000000	99.690718
2408.000000	99.690940
2407.000000	99.691089
2406.000000	99.691122
2405.000000	99.691085
2404.000000	99.691110
2403.000000	99.691320
2402.000000	99.691713
2401.000000	99.692114
2400.000000	99.692326
2399.000000	99.692280
2398.000000	99.692057
2397.000000	99.691769
2396.000000	99.691511
2395.000000	99.691430
2394.000000	99.691720
2393.000000	99.692454
2392.000000	99.693464
2391.000000	99.694436
2390.000000	99.695150
2389.000000	99.695608
2388.000000	99.695992
2387.000000	99.696494
2386.000000	99.697124
2385.000000	99.697727
2384.000000	99.698191
2383.000000	99.698571
2382.000000	99.698914
2381.000000	99.699073
2380.000000	99.698850
2379.000000	99.698367
2378.000000	99.698079
2377.000000	99.698329
2376.000000	99.698970
2375.000000	99.699566
2374.000000	99.699907
2373.000000	99.700206
2372.000000	99.700803
2371.000000	99.701772
2370.000000	99.702783
2369.000000	99.703308
2368.000000	99.703030
2367.000000	99.702075
2366.000000	99.700935
2365.000000	99.700118
2364.000000	99.699853
2363.000000	99.700069
2362.000000	99.700515
2361.000000	99.700957
2360.000000	99.701347
2359.000000	99.701793
2358.000000	99.702300
2357.000000	99.702600
2356.000000	99.702429
2355.000000	99.701908
2354.000000	99.701418
2353.000000	99.701116
2352.000000	99.700793
2351.000000	99.700311
2350.000000	99.699900
2349.000000	99.699945
2348.000000	99.700593
2347.000000	99.701432
2346.000000	99.701617
2345.000000	99.700547
2344.000000	99.698483
2343.000000	99.696438
2342.000000	99.695236
2341.000000	99.695024
2340.000000	99.695535
2339.000000	99.696466
2338.000000	99.697517
2337.000000	99.698345
2336.000000	99.698791
2335.000000	99.699026
2334.000000	99.699348
2333.000000	99.699849
2332.000000	99.700300
2331.000000	99.700296
2330.000000	99.699443
2329.000000	99.697647
2328.000000	99.695404
2327.000000	99.693621
2326.000000	99.692948
2325.000000	99.693231
2324.000000	99.693781
2323.000000	99.694276
2322.000000	99.695112
2321.000000	99.696668
2320.000000	99.698487
2319.000000	99.699623
2318.000000	99.699704
2317.000000	99.699300
2316.000000	99.699197
2315.000000	99.699602
2314.000000	99.700273
2313.000000	99.701035
2312.000000	99.701756
2311.000000	99.702025
2310.000000	99.701442
2309.000000	99.700235
2308.000000	99.699147
2307.000000	99.698556
2306.000000	99.698130
2305.000000	99.697462
2304.000000	99.696662
2303.000000	99.696098
2302.000000	99.695858
2301.000000	99.695652
2300.000000	99.695072
2299.000000	99.693872
2298.000000	99.692266
2297.000000	99.691019
2296.000000	99.690880
2295.000000	99.691840
2294.000000	99.693016
2293.000000	99.693488
2292.000000	99.693158
2291.000000	99.692471
2290.000000	99.691710
2289.000000	99.690849
2288.000000	99.689948
2287.000000	99.689218
2286.000000	99.688683
2285.000000	99.688135
2284.000000	99.687439
2283.000000	99.686625
2282.000000	99.685705
2281.000000	99.684658
2280.000000	99.683604
2279.000000	99.682771
2278.000000	99.682232
2277.000000	99.681800
2276.000000	99.681217
2275.000000	99.680418
2274.000000	99.679548
2273.000000	99.678791
2272.000000	99.678204
2271.000000	99.677694
2270.000000	99.677130
2269.000000	99.676481
2268.000000	99.675837
2267.000000	99.675294
2266.000000	99.674845
2265.000000	99.674395
2264.000000	99.673870
2263.000000	99.673279
2262.000000	99.672668
2261.000000	99.672059
2260.000000	99.671442
2259.000000	99.670795
2258.000000	99.670100
2257.000000	99.669385
2256.000000	99.668760
2255.000000	99.668306
2254.000000	99.667976
2253.000000	99.667619
2252.000000	99.667160
2251.000000	99.666676
2250.000000	99.666269
2249.000000	99.665953
2248.000000	99.665683
2247.000000	99.665419
2246.000000	99.665132
2245.000000	99.664819
2244.000000	99.664497
2243.000000	99.664183
2242.000000	99.663883
2241.000000	99.663599
2240.000000	99.663327
2239.000000	99.663064
2238.000000	99.662809
2237.000000	99.662561
2236.000000	99.662316
2235.000000	99.662073
2234.000000	99.661834
2233.000000	99.661599
2232.000000	99.661369
2231.000000	99.661145
2230.000000	99.660923
2229.000000	99.660706
2228.000000	99.660494
2227.000000	99.660288
2226.000000	99.660087
2225.000000	99.659889
2224.000000	99.659691
2223.000000	99.659494
2222.000000	99.659304
2221.000000	99.659127
2220.000000	99.658970
2219.000000	99.658840
2218.000000	99.658739
2217.000000	99.658664
2216.000000	99.658610
2215.000000	99.658570
2214.000000	99.658538
2213.000000	99.658506
2212.000000	99.658467
2211.000000	99.658417
2210.000000	99.658361
2209.000000	99.658306
2208.000000	99.658256
2207.000000	99.658207
2206.000000	99.658152
2205.000000	99.658088
2204.000000	99.658012
2203.000000	99.657915
2202.000000	99.657812
2201.000000	99.657736
2200.000000	99.657704
2199.000000	99.657727
2198.000000	99.657809
2197.000000	99.657930
2196.000000	99.658053
2195.000000	99.658152
2194.000000	99.658219
2193.000000	99.658252
2192.000000	99.658249
2191.000000	99.658241
2190.000000	99.658283
2189.000000	99.658388
2188.000000	99.658482
2187.000000	99.658480
2186.000000	99.658413
2185.000000	99.658429
2184.000000	99.658631
2183.000000	99.658936
2182.000000	99.659126
2181.000000	99.659101
2180.000000	99.659058
2179.000000	99.659344
2178.000000	99.660113
2177.000000	99.661111
2176.000000	99.661847
2175.000000	99.662058
2174.000000	99.661870
2173.000000	99.661585
2172.000000	99.661333
2171.000000	99.661059
2170.000000	99.660738
2169.000000	99.660470
2168.000000	99.660360
2167.000000	99.660381
2166.000000	99.660414
2165.000000	99.660386
2164.000000	99.660322
2163.000000	99.660312
2162.000000	99.660488
2161.000000	99.660969
2160.000000	99.661733
2159.000000	99.662510
2158.000000	99.662942
2157.000000	99.662961
2156.000000	99.662856
2155.000000	99.662898
2154.000000	99.663009
2153.000000	99.662980
2152.000000	99.662865
2151.000000	99.662916
2150.000000	99.663201
2149.000000	99.663542
2148.000000	99.663841
2147.000000	99.664161
2146.000000	99.664469
2145.000000	99.664615
2144.000000	99.664619
2143.000000	99.664726
2142.000000	99.665090
2141.000000	99.665605
2140.000000	99.666098
2139.000000	99.666533
2138.000000	99.666962
2137.000000	99.667416
2136.000000	99.667925
2135.000000	99.668486
2134.000000	99.669015
2133.000000	99.669440
2132.000000	99.669796
2131.000000	99.670169
2130.000000	99.670583
2129.000000	99.670994
2128.000000	99.671376
2127.000000	99.671759
2126.000000	99.672180
2125.000000	99.672642
2124.000000	99.673126
2123.000000	99.673607
2122.000000	99.674073
2121.000000	99.674527
2120.000000	99.674981
2119.000000	99.675444
2118.000000	99.675916
2117.000000	99.676389
2116.000000	99.676852
2115.000000	99.677305
2114.000000	99.677758
2113.000000	99.678227
2112.000000	99.678727
2111.000000	99.679262
2110.000000	99.679818
2109.000000	99.680372
2108.000000	99.680904
2107.000000	99.681406
2106.000000	99.681886
2105.000000	99.682356
2104.000000	99.682831
2103.000000	99.683319
2102.000000	99.683823
2101.000000	99.684337
2100.000000	99.684846
2099.000000	99.685317
2098.000000	99.685724
2097.000000	99.686063
2096.000000	99.686375
2095.000000	99.686717
2094.000000	99.687117
2093.000000	99.687546
2092.000000	99.687952
2091.000000	99.688331
2090.000000	99.688716
2089.000000	99.689108
2088.000000	99.689470
2087.000000	99.689797
2086.000000	99.690160
2085.000000	99.690609
2084.000000	99.691082
2083.000000	99.691407
2082.000000	99.691446
2081.000000	99.691230
2080.000000	99.690967
2079.000000	99.690886
2078.000000	99.691017
2077.000000	99.691179
2076.000000	99.691232
2075.000000	99.691289
2074.000000	99.691549
2073.000000	99.692004
2072.000000	99.692384
2071.000000	99.692438
2070.000000	99.692129
2069.000000	99.691606
2068.000000	99.691114
2067.000000	99.690850
2066.000000	99.690841
2065.000000	99.690920
2064.000000	99.690908
2063.000000	99.690811
2062.000000	99.690731
2061.000000	99.690682
2060.000000	99.690626
2059.000000	99.690620
2058.000000	99.690782
2057.000000	99.691105
2056.000000	99.691421
2055.000000	99.691561
2054.000000	99.691437
2053.000000	99.691015
2052.000000	99.690334
2051.000000	99.689634
2050.000000	99.689246
2049.000000	99.689267
2048.000000	99.689381
2047.000000	99.689172
2046.000000	99.688553
2045.000000	99.687762
2044.000000	99.686942
2043.000000	99.685934
2042.000000	99.684617
2041.000000	99.683306
2040.000000	99.682515
2039.000000	99.682316
2038.000000	99.682156
2037.000000	99.681506
2036.000000	99.680544
2035.000000	99.679939
2034.000000	99.680007
2033.000000	99.680340
2032.000000	99.680299
2031.000000	99.679774
2030.000000	99.679273
2029.000000	99.679290
2028.000000	99.679586
2027.000000	99.679297
2026.000000	99.677792
2025.000000	99.675358
2024.000000	99.673041
2023.000000	99.671681
2022.000000	99.671225
2021.000000	99.671014
2020.000000	99.670493
2019.000000	99.669596
2018.000000	99.668525
2017.000000	99.667480
2016.000000	99.666619
2015.000000	99.665996
2014.000000	99.665462
2013.000000	99.664790
2012.000000	99.663905
2011.000000	99.662816
2010.000000	99.661384
2009.000000	99.659481
2008.000000	99.657384
2007.000000	99.655639
2006.000000	99.654365
2005.000000	99.653226
2004.000000	99.652132
2003.000000	99.651523
2002.000000	99.651696
2001.000000	99.652280
2000.000000	99.652818
1999.000000	99.653167
1998.000000	99.653236
1997.000000	99.652712
1996.000000	99.651427
1995.000000	99.649733
1994.000000	99.648247
1993.000000	99.647238
1992.000000	99.646513
1991.000000	99.645898
1990.000000	99.645549
1989.000000	99.645669
1988.000000	99.646157
1987.000000	99.646674
1986.000000	99.646928
1985.000000	99.646807
1984.000000	99.646302
1983.000000	99.645425
1982.000000	99.644344
1981.000000	99.643435
1980.000000	99.643129
1979.000000	99.643390
1978.000000	99.643680
1977.000000	99.643497
1976.000000	99.642881
1975.000000	99.642274
1974.000000	99.641989
1973.000000	99.641965
1972.000000	99.641993
1971.000000	99.641992
1970.000000	99.642025
1969.000000	99.642107
1968.000000	99.642100
1967.000000	99.641819
1966.000000	99.641249
1965.000000	99.640627
1964.000000	99.640264
1963.000000	99.640282
1962.000000	99.640543
1961.000000	99.640809
1960.000000	99.641011
1959.000000	99.641253
1958.000000	99.641548
1957.000000	99.641656
1956.000000	99.641335
1955.000000	99.640632
1954.000000	99.639742
1953.000000	99.638724
1952.000000	99.637463
1951.000000	99.636187
1950.000000	99.635469
1949.000000	99.635583
1948.000000	99.636201
1947.000000	99.636681
1946.000000	99.636659
1945.000000	99.636327
1944.000000	99.636234
1943.000000	99.636787
1942.000000	99.637713
1941.000000	99.638162
1940.000000	99.637417
1939.000000	99.635478
1938.000000	99.633138
1937.000000	99.631408
1936.000000	99.630669
1935.000000	99.630524
1934.000000	99.630596
1933.000000	99.631121
1932.000000	99.632188
1931.000000	99.633282
1930.000000	99.633454
1929.000000	99.632471
1928.000000	99.631583
1927.000000	99.631683
1926.000000	99.632192
1925.000000	99.631425
1924.000000	99.629105
1923.000000	99.626973
1922.000000	99.626277
1921.000000	99.626044
1920.000000	99.624815
1919.000000	99.622581
1918.000000	99.620435
1917.000000	99.618795
1916.000000	99.617445
1915.000000	99.616242
1914.000000	99.615069
1913.000000	99.613510
1912.000000	99.611084
1911.000000	99.608015
1910.000000	99.604966
1909.000000	99.602461
1908.000000	99.600802
1907.000000	99.599740
1906.000000	99.598960
1905.000000	99.597892
1904.000000	99.596395
1903.000000	99.594899
1902.000000	99.593367
1901.000000	99.591506
1900.000000	99.589957
1899.000000	99.589590
1898.000000	99.590227
1897.000000	99.590289
1896.000000	99.588833
1895.000000	99.586981
1894.000000	99.586326
1893.000000	99.586972
1892.000000	99.587825
1891.000000	99.587838
1890.000000	99.586508
1889.000000	99.584173
1888.000000	99.582238
1887.000000	99.581892
1886.000000	99.582614
1885.000000	99.582728
1884.000000	99.581467
1883.000000	99.579912
1882.000000	99.579216
1881.000000	99.579298
1880.000000	99.579724
1879.000000	99.580355
1878.000000	99.580943
1877.000000	99.580747
1876.000000	99.579332
1875.000000	99.577610
1874.000000	99.576790
1873.000000	99.576622
1872.000000	99.576037
1871.000000	99.574957
1870.000000	99.574247
1869.000000	99.574000
1868.000000	99.573663
1867.000000	99.573772
1866.000000	99.575086
1865.000000	99.577133
1864.000000	99.578965
1863.000000	99.580398
1862.000000	99.581667
1861.000000	99.582493
1860.000000	99.582697
1859.000000	99.583233
1858.000000	99.585326
1857.000000	99.588764
1856.000000	99.591920
1855.000000	99.593417
1854.000000	99.593044
1853.000000	99.591462
1852.000000	99.590319
1851.000000	99.590625
1850.000000	99.592204
1849.000000	99.594144
1848.000000	99.595765
1847.000000	99.597106
1846.000000	99.598418
1845.000000	99.599694
1844.000000	99.600680
1843.000000	99.601511
1842.000000	99.602398
1841.000000	99.603091
1840.000000	99.603462
1839.000000	99.603719
1838.000000	99.604255
1837.000000	99.604974
1836.000000	99.605748
1835.000000	99.606779
1834.000000	99.608061
1833.000000	99.609114
1832.000000	99.609462
1831.000000	99.608843
1830.000000	99.607665
1829.000000	99.606708
1828.000000	99.606345
1827.000000	99.606423
1826.000000	99.606766
1825.000000	99.607210
1824.000000	99.607482
1823.000000	99.607698
1822.000000	99.608315
1821.000000	99.609501
1820.000000	99.610763
1819.000000	99.611427
1818.000000	99.611437
1817.000000	99.611100
1816.000000	99.610778
1815.000000	99.610827
1814.000000	99.611328
1813.000000	99.611949
1812.000000	99.611977
1811.000000	99.611314
1810.000000	99.610794
1809.000000	99.611000
1808.000000	99.611695
1807.000000	99.612294
1806.000000	99.612364
1805.000000	99.611806
1804.000000	99.611020
1803.000000	99.610798
1802.000000	99.611366
1801.000000	99.612168
1800.000000	99.612369
1799.000000	99.612239
1798.000000	99.612681
1797.000000	99.613866
1796.000000	99.615234
1795.000000	99.616298
1794.000000	99.616910
1793.000000	99.617133
1792.000000	99.616919
1791.000000	99.616648
1790.000000	99.616793
1789.000000	99.617218
1788.000000	99.617728
1787.000000	99.618601
1786.000000	99.620111
1785.000000	99.621861
1784.000000	99.623307
1783.000000	99.624555
1782.000000	99.625675
1781.000000	99.626840
1780.000000	99.627961
1779.000000	99.629193
1778.000000	99.630863
1777.000000	99.632920
1776.000000	99.634890
1775.000000	99.635994
1774.000000	99.635973
1773.000000	99.635552
1772.000000	99.635553
1771.000000	99.636001
1770.000000	99.636895
1769.000000	99.638154
1768.000000	99.639536
1767.000000	99.640889
1766.000000	99.642279
1765.000000	99.643841
1764.000000	99.645263
1763.000000	99.646165
1762.000000	99.646580
1761.000000	99.647362
1760.000000	99.648901
1759.000000	99.650886
1758.000000	99.652528
1757.000000	99.653513
1756.000000	99.654189
1755.000000	99.654770
1754.000000	99.655465
1753.000000	99.656694
1752.000000	99.658622
1751.000000	99.660097
1750.000000	99.660359
1749.000000	99.659994
1748.000000	99.660094
1747.000000	99.660719
1746.000000	99.661380
1745.000000	99.662435
1744.000000	99.663693
1743.000000	99.664612
1742.000000	99.665640
1741.000000	99.667907
1740.000000	99.671071
1739.000000	99.673648
1738.000000	99.674874
1737.000000	99.674896
1736.000000	99.673737
1735.000000	99.671745
1734.000000	99.669160
1733.000000	99.667094
1732.000000	99.666930
1731.000000	99.667263
1730.000000	99.666804
1729.000000	99.666192
1728.000000	99.666821
1727.000000	99.668475
1726.000000	99.669813
1725.000000	99.670449
1724.000000	99.670266
1723.000000	99.670217
1722.000000	99.671445
1721.000000	99.673692
1720.000000	99.675695
1719.000000	99.676686
1718.000000	99.676627
1717.000000	99.674212
1716.000000	99.669350
1715.000000	99.664627
1714.000000	99.661504
1713.000000	99.659254
1712.000000	99.657323
1711.000000	99.656288
1710.000000	99.656334
1709.000000	99.656633
1708.000000	99.656394
1707.000000	99.655671
1706.000000	99.655300
1705.000000	99.654995
1704.000000	99.654116
1703.000000	99.652588
1702.000000	99.650802
1701.000000	99.649365
1700.000000	99.648156
1699.000000	99.647581
1698.000000	99.648079
1697.000000	99.647934
1696.000000	99.645987
1695.000000	99.643040
1694.000000	99.640897
1693.000000	99.639757
1692.000000	99.638902
1691.000000	99.638207
1690.000000	99.637589
1689.000000	99.636830
1688.000000	99.636111
1687.000000	99.635240
1686.000000	99.634452
1685.000000	99.633906
1684.000000	99.633255
1683.000000	99.632514
1682.000000	99.632013
1681.000000	99.631514
1680.000000	99.631367
1679.000000	99.631577
1678.000000	99.631600
1677.000000	99.631253
1676.000000	99.630855
1675.000000	99.630499
1674.000000	99.629882
1673.000000	99.629399
1672.000000	99.629203
1671.000000	99.629109
1670.000000	99.628343
1669.000000	99.626746
1668.000000	99.625659
1667.000000	99.625749
1666.000000	99.626367
1665.000000	99.626768
1664.000000	99.626726
1663.000000	99.626564
1662.000000	99.626137
1661.000000	99.625642
1660.000000	99.625619
1659.000000	99.625971
1658.000000	99.626086
1657.000000	99.625844
1656.000000	99.625460
1655.000000	99.625417
1654.000000	99.626788
1653.000000	99.628920
1652.000000	99.630366
1651.000000	99.632482
1650.000000	99.634406
1649.000000	99.635430
1648.000000	99.635635
1647.000000	99.635298
1646.000000	99.635005
1645.000000	99.635353
1644.000000	99.636187
1643.000000	99.637082
1642.000000	99.637670
1641.000000	99.638015
1640.000000	99.638456
1639.000000	99.639143
1638.000000	99.640043
1637.000000	99.641064
1636.000000	99.642148
1635.000000	99.643047
1634.000000	99.643876
1633.000000	99.644776
1632.000000	99.645749
1631.000000	99.646793
1630.000000	99.647817
1629.000000	99.648736
1628.000000	99.649578
1627.000000	99.650441
1626.000000	99.651356
1625.000000	99.652322
1624.000000	99.653348
1623.000000	99.654429
1622.000000	99.655522
1621.000000	99.656604
1620.000000	99.657676
1619.000000	99.658721
1618.000000	99.659720
1617.000000	99.660675
1616.000000	99.661631
1615.000000	99.662589
1614.000000	99.663484
1613.000000	99.664271
1612.000000	99.664997
1611.000000	99.665772
1610.000000	99.666640
1609.000000	99.667552
1608.000000	99.668469
1607.000000	99.669395
1606.000000	99.670228
1605.000000	99.670917
1604.000000	99.671549
1603.000000	99.672155
1602.000000	99.672638
1601.000000	99.673038
1600.000000	99.673666
1599.000000	99.674728
1598.000000	99.675977
1597.000000	99.676916
1596.000000	99.677364
1595.000000	99.677611
1594.000000	99.677974
1593.000000	99.678442
1592.000000	99.678894
1591.000000	99.679355
1590.000000	99.679865
1589.000000	99.680381
1588.000000	99.680885
1587.000000	99.681378
1586.000000	99.681725
1585.000000	99.681766
1584.000000	99.681770
1583.000000	99.681863
1582.000000	99.681897
1581.000000	99.681828
1580.000000	99.681717
1579.000000	99.681247
1578.000000	99.680161
1577.000000	99.678753
1576.000000	99.677738
1575.000000	99.677420
1574.000000	99.677385
1573.000000	99.677197
1572.000000	99.676785
1571.000000	99.676271
1570.000000	99.675554
1569.000000	99.674513
1568.000000	99.673561
1567.000000	99.672851
1566.000000	99.672267
1565.000000	99.671786
1564.000000	99.671516
1563.000000	99.671240
1562.000000	99.670650
1561.000000	99.669822
1560.000000	99.669517
1559.000000	99.669438
1558.000000	99.668233
1557.000000	99.666787
1556.000000	99.665695
1555.000000	99.664810
1554.000000	99.663843
1553.000000	99.662695
1552.000000	99.661347
1551.000000	99.659860
1550.000000	99.658559
1549.000000	99.657547
1548.000000	99.656771
1547.000000	99.656072
1546.000000	99.655338
1545.000000	99.654441
1544.000000	99.653257
1543.000000	99.651837
1542.000000	99.650731
1541.000000	99.650200
1540.000000	99.649447
1539.000000	99.647599
1538.000000	99.645294
1537.000000	99.643235
1536.000000	99.641544
1535.000000	99.640483
1534.000000	99.639972
1533.000000	99.639297
1532.000000	99.638009
1531.000000	99.636901
1530.000000	99.636646
1529.000000	99.636930
1528.000000	99.637047
1527.000000	99.636954
1526.000000	99.637063
1525.000000	99.637371
1524.000000	99.637223
1523.000000	99.636405
1522.000000	99.635495
1521.000000	99.634730
1520.000000	99.633769
1519.000000	99.632421
1518.000000	99.630834
1517.000000	99.629626
1516.000000	99.629144
1515.000000	99.629324
1514.000000	99.629688
1513.000000	99.629824
1512.000000	99.629216
1511.000000	99.627967
1510.000000	99.626699
1509.000000	99.625884
1508.000000	99.625634
1507.000000	99.626052
1506.000000	99.626932
1505.000000	99.627875
1504.000000	99.628521
1503.000000	99.628591
1502.000000	99.628405
1501.000000	99.628402
1500.000000	99.628591
1499.000000	99.628505
1498.000000	99.628046
1497.000000	99.627309
1496.000000	99.626250
1495.000000	99.625488
1494.000000	99.625509
1493.000000	99.626042
1492.000000	99.626507
1491.000000	99.626658
1490.000000	99.626639
1489.000000	99.626648
1488.000000	99.626700
1487.000000	99.626968
1486.000000	99.627311
1485.000000	99.627153
1484.000000	99.626447
1483.000000	99.625541
1482.000000	99.624906
1481.000000	99.624530
1480.000000	99.624082
1479.000000	99.623485
1478.000000	99.623028
1477.000000	99.622903
1476.000000	99.622979
1475.000000	99.623209
1474.000000	99.623548
1473.000000	99.623767
1472.000000	99.623471
1471.000000	99.622769
1470.000000	99.622080
1469.000000	99.621543
1468.000000	99.621076
1467.000000	99.620673
1466.000000	99.620365
1465.000000	99.620128
1464.000000	99.619879
1463.000000	99.619584
1462.000000	99.619300
1461.000000	99.619053
1460.000000	99.618830
1459.000000	99.618613
1458.000000	99.618404
1457.000000	99.618202
1456.000000	99.617998
1455.000000	99.617794
1454.000000	99.617598
1453.000000	99.617418
1452.000000	99.617257
1451.000000	99.617111
1450.000000	99.616975
1449.000000	99.616849
1448.000000	99.616727
1447.000000	99.616606
1446.000000	99.616492
1445.000000	99.616403
1444.000000	99.616356
1443.000000	99.616340
1442.000000	99.616343
1441.000000	99.616362
1440.000000	99.616415
1439.000000	99.616522
1438.000000	99.616736
1437.000000	99.617096
1436.000000	99.617507
1435.000000	99.617802
1434.000000	99.617968
1433.000000	99.618136
1432.000000	99.618452
1431.000000	99.618923
1430.000000	99.619426
1429.000000	99.619824
1428.000000	99.620052
1427.000000	99.620249
1426.000000	99.620661
1425.000000	99.621673
1424.000000	99.623270
1423.000000	99.624646
1422.000000	99.625214
1421.000000	99.625204
1420.000000	99.625147
1419.000000	99.624817
1418.000000	99.624074
1417.000000	99.623701
1416.000000	99.623997
1415.000000	99.624421
1414.000000	99.624552
1413.000000	99.624849
1412.000000	99.625883
1411.000000	99.627339
1410.000000	99.628746
1409.000000	99.630228
1408.000000	99.631999
1407.000000	99.634196
1406.000000	99.636405
1405.000000	99.638505
1404.000000	99.640568
1403.000000	99.642400
1402.000000	99.644087
1401.000000	99.645914
1400.000000	99.648006
1399.000000	99.649885
1398.000000	99.651388
1397.000000	99.652966
1396.000000	99.654706
1395.000000	99.656004
1394.000000	99.656352
1393.000000	99.656894
1392.000000	99.658334
1391.000000	99.659925
1390.000000	99.660931
1389.000000	99.661599
1388.000000	99.662491
1387.000000	99.663744
1386.000000	99.665014
1385.000000	99.666319
1384.000000	99.667797
1383.000000	99.669043
1382.000000	99.669688
1381.000000	99.669732
1380.000000	99.669916
1379.000000	99.671036
1378.000000	99.673088
1377.000000	99.675497
1376.000000	99.677925
1375.000000	99.680320
1374.000000	99.682330
1373.000000	99.683686
1372.000000	99.684577
1371.000000	99.685569
1370.000000	99.686746
1369.000000	99.687794
1368.000000	99.688222
1367.000000	99.687848
1366.000000	99.687171
1365.000000	99.687033
1364.000000	99.687997
1363.000000	99.689947
1362.000000	99.692008
1361.000000	99.693201
1360.000000	99.693231
1359.000000	99.692459
1358.000000	99.691529
1357.000000	99.691059
1356.000000	99.691315
1355.000000	99.692035
1354.000000	99.692611
1353.000000	99.692583
1352.000000	99.691966
1351.000000	99.691286
1350.000000	99.690905
1349.000000	99.690871
1348.000000	99.691089
1347.000000	99.691530
1346.000000	99.692101
1345.000000	99.692498
1344.000000	99.692397
1343.000000	99.691839
1342.000000	99.691287
1341.000000	99.691228
1340.000000	99.691708
1339.000000	99.692291
1338.000000	99.692497
1337.000000	99.692227
1336.000000	99.691682
1335.000000	99.691167
1334.000000	99.690959
1333.000000	99.691163
1332.000000	99.691605
1331.000000	99.691984
1330.000000	99.692194
1329.000000	99.692372
1328.000000	99.692543
1327.000000	99.692473
1326.000000	99.691970
1325.000000	99.691265
1324.000000	99.690820
1323.000000	99.690899
1322.000000	99.691483
1321.000000	99.692300
1320.000000	99.692773
1319.000000	99.692313
1318.000000	99.691090
1317.000000	99.690166
1316.000000	99.690397
1315.000000	99.691542
1314.000000	99.692689
1313.000000	99.693264
1312.000000	99.693158
1311.000000	99.692333
1310.000000	99.690994
1309.000000	99.689987
1308.000000	99.690216
1307.000000	99.691645
1306.000000	99.693169
1305.000000	99.693833
1304.000000	99.693571
1303.000000	99.692902
1302.000000	99.692335
1301.000000	99.692136
1300.000000	99.692327
1299.000000	99.692736
1298.000000	99.693193
1297.000000	99.693577
1296.000000	99.693644
1295.000000	99.693050
1294.000000	99.691818
1293.000000	99.690470
1292.000000	99.689530
1291.000000	99.689227
1290.000000	99.689691
1289.000000	99.690937
1288.000000	99.692476
1287.000000	99.693384
1286.000000	99.693186
1285.000000	99.692331
1284.000000	99.691435
1283.000000	99.690467
1282.000000	99.689214
1281.000000	99.688221
1280.000000	99.688623
1279.000000	99.690865
1278.000000	99.693936
1277.000000	99.695844
1276.000000	99.694937
1275.000000	99.691163
1274.000000	99.686580
1273.000000	99.684214
1272.000000	99.685587
1271.000000	99.689350
1270.000000	99.692493
1269.000000	99.693051
1268.000000	99.691470
1267.000000	99.689677
1266.000000	99.689244
1265.000000	99.689953
1264.000000	99.690011
1263.000000	99.688284
1262.000000	99.686311
1261.000000	99.686848
1260.000000	99.690115
1259.000000	99.692889
1258.000000	99.692445
1257.000000	99.689586
1256.000000	99.686370
1255.000000	99.682573
1254.000000	99.676717
1253.000000	99.669762
1252.000000	99.665228
1251.000000	99.665251
1250.000000	99.668315
1249.000000	99.671401
1248.000000	99.672827
1247.000000	99.672133
1246.000000	99.668762
1245.000000	99.662109
1244.000000	99.652538
1243.000000	99.641642
1242.000000	99.631476
1241.000000	99.623607
1240.000000	99.618757
1239.000000	99.617027
1238.000000	99.618149
1237.000000	99.621106
1236.000000	99.623488
1235.000000	99.622107
1234.000000	99.615307
1233.000000	99.604840
1232.000000	99.594892
1231.000000	99.588854
1230.000000	99.586797
1229.000000	99.585630
1228.000000	99.581512
1227.000000	99.572604
1226.000000	99.560208
1225.000000	99.547259
1224.000000	99.535474
1223.000000	99.524061
1222.000000	99.510976
1221.000000	99.494713
1220.000000	99.474837
1219.000000	99.451902
1218.000000	99.427697
1217.000000	99.404961
1216.000000	99.385676
1215.000000	99.369263
1214.000000	99.352712
1213.000000	99.332724
1212.000000	99.307871
1211.000000	99.279281
1210.000000	99.249694
1209.000000	99.221793
1208.000000	99.197289
1207.000000	99.177182
1206.000000	99.161837
1205.000000	99.149855
1204.000000	99.137288
1203.000000	99.119572
1202.000000	99.095179
1201.000000	99.066644
1200.000000	99.037387
1199.000000	99.008348
1198.000000	98.978673
1197.000000	98.948734
1196.000000	98.920717
1195.000000	98.896350
1194.000000	98.875448
1193.000000	98.856816
1192.000000	98.839024
1191.000000	98.819915
1190.000000	98.797139
1189.000000	98.770389
1188.000000	98.742152
1187.000000	98.715306
1186.000000	98.690564
1185.000000	98.666752
1184.000000	98.642315
1183.000000	98.615561
1182.000000	98.584883
1181.000000	98.550538
1180.000000	98.515592
1179.000000	98.483412
1178.000000	98.454431
1177.000000	98.426613
1176.000000	98.398261
1175.000000	98.368593
1174.000000	98.336266
1173.000000	98.299961
1172.000000	98.260708
1171.000000	98.221534
1170.000000	98.184152
1169.000000	98.147751
1168.000000	98.111678
1167.000000	98.077577
1166.000000	98.048063
1165.000000	98.024775
1164.000000	98.008762
1163.000000	98.001514
1162.000000	98.004305
1161.000000	98.016686
1160.000000	98.035412
1159.000000	98.054332
1158.000000	98.066440
1157.000000	98.067684
1156.000000	98.058689
1155.000000	98.042268
1154.000000	98.020258
1153.000000	97.994065
1152.000000	97.967051
1151.000000	97.943376
1150.000000	97.923639
1149.000000	97.903664
1148.000000	97.878764
1147.000000	97.848117
1146.000000	97.814563
1145.000000	97.781311
1144.000000	97.749569
1143.000000	97.718719
1142.000000	97.688328
1141.000000	97.659908
1140.000000	97.635792
1139.000000	97.615463
1138.000000	97.594412
1137.000000	97.568517
1136.000000	97.538724
1135.000000	97.509488
1134.000000	97.483116
1133.000000	97.457628
1132.000000	97.429907
1131.000000	97.399077
1130.000000	97.367167
1129.000000	97.337835
1128.000000	97.313330
1127.000000	97.291021
1126.000000	97.264664
1125.000000	97.231616
1124.000000	97.196815
1123.000000	97.166307
1122.000000	97.138562
1121.000000	97.106865
1120.000000	97.069350
1119.000000	97.031240
1118.000000	96.996555
1117.000000	96.962934
1116.000000	96.926985
1115.000000	96.890319
1114.000000	96.857164
1113.000000	96.829155
1112.000000	96.805184
1111.000000	96.783178
1110.000000	96.759115
1109.000000	96.727715
1108.000000	96.687799
1107.000000	96.645422
1106.000000	96.608428
1105.000000	96.579229
1104.000000	96.555103
1103.000000	96.532968
1102.000000	96.510780
1101.000000	96.486175
1100.000000	96.457209
1099.000000	96.424529
1098.000000	96.390558
1097.000000	96.357514
1096.000000	96.327241
1095.000000	96.301273
1094.000000	96.279132
1093.000000	96.257696
1092.000000	96.233757
1091.000000	96.206477
1090.000000	96.177156
1089.000000	96.148310
1088.000000	96.123114
1087.000000	96.103241
1086.000000	96.086536
1085.000000	96.069272
1084.000000	96.051272
1083.000000	96.036113
1082.000000	96.025538
1081.000000	96.016404
1080.000000	96.004056
1079.000000	95.986233
1078.000000	95.963228
1077.000000	95.937229
1076.000000	95.912044
1075.000000	95.889937
1074.000000	95.867712
1073.000000	95.839222
1072.000000	95.802737
1071.000000	95.762295
1070.000000	95.720331
1069.000000	95.672850
1068.000000	95.615083
1067.000000	95.549350
1066.000000	95.483919
1065.000000	95.424811
1064.000000	95.370998
1063.000000	95.316832
1062.000000	95.257200
1061.000000	95.191060
1060.000000	95.121966
1059.000000	95.055737
1058.000000	94.996899
1057.000000	94.946285
1056.000000	94.900494
1055.000000	94.853200
1054.000000	94.799474
1053.000000	94.740774
1052.000000	94.683473
1051.000000	94.630091
1050.000000	94.575056
1049.000000	94.512515
1048.000000	94.443956
1047.000000	94.373502
1046.000000	94.300565
1045.000000	94.223095
1044.000000	94.144210
1043.000000	94.069335
1042.000000	93.999378
1041.000000	93.932526
1040.000000	93.869805
1039.000000	93.811760
1038.000000	93.752408
1037.000000	93.685584
1036.000000	93.616533
1035.000000	93.558008
1034.000000	93.514252
1033.000000	93.476881
1032.000000	93.437403
1031.000000	93.396361
1030.000000	93.358838
1029.000000	93.328431
1028.000000	93.307150
1027.000000	93.293813
1026.000000	93.280701
1025.000000	93.258894
1024.000000	93.228995
1023.000000	93.200385
1022.000000	93.178678
1021.000000	93.160173
1020.000000	93.139558
1019.000000	93.116211
1018.000000	93.091354
1017.000000	93.065671
1016.000000	93.041897
1015.000000	93.024068
1014.000000	93.012460
1013.000000	93.003878
1012.000000	92.996932
1011.000000	92.991572
1010.000000	92.984494
1009.000000	92.972248
1008.000000	92.958664
1007.000000	92.951376
1006.000000	92.950259
1005.000000	92.946978
1004.000000	92.937475
1003.000000	92.927536
1002.000000	92.923961
1001.000000	92.927122
1000.000000	92.934282
999.000000	92.943769
998.000000	92.953537
997.000000	92.961203
996.000000	92.967426
995.000000	92.974493
994.000000	92.981162
993.000000	92.984549
992.000000	92.987388
991.000000	92.996927
990.000000	93.015962
989.000000	93.041272
988.000000	93.071140
987.000000	93.107181
986.000000	93.147309
985.000000	93.184217
984.000000	93.213842
983.000000	93.240348
982.000000	93.271015
981.000000	93.310875
980.000000	93.362726
979.000000	93.426275
978.000000	93.495803
977.000000	93.563836
976.000000	93.628217
975.000000	93.691343
974.000000	93.753679
973.000000	93.814241
972.000000	93.876644
971.000000	93.947115
970.000000	94.025508
969.000000	94.104838
968.000000	94.180901
967.000000	94.256058
966.000000	94.332377
965.000000	94.407490
964.000000	94.479038
963.000000	94.547491
962.000000	94.612940
961.000000	94.674817
960.000000	94.736377
959.000000	94.803346
958.000000	94.875387
957.000000	94.944076
956.000000	95.002426
955.000000	95.052468
954.000000	95.101317
953.000000	95.153257
952.000000	95.207633
951.000000	95.260903
950.000000	95.308475
949.000000	95.347349
948.000000	95.378966
947.000000	95.407802
946.000000	95.436824
945.000000	95.466389
944.000000	95.496637
943.000000	95.526895
942.000000	95.553315
941.000000	95.572177
940.000000	95.586120
939.000000	95.602512
938.000000	95.624823
937.000000	95.650199
936.000000	95.676122
935.000000	95.703636
934.000000	95.732144
933.000000	95.756906
932.000000	95.775278
931.000000	95.791335
930.000000	95.810728
929.000000	95.834057
928.000000	95.858687
927.000000	95.884377
926.000000	95.913380
925.000000	95.945905
924.000000	95.978010
923.000000	96.004061
922.000000	96.021104
921.000000	96.032213
920.000000	96.045571
919.000000	96.068093
918.000000	96.098954
917.000000	96.130410
916.000000	96.154815
915.000000	96.169854
914.000000	96.178889
913.000000	96.189419
912.000000	96.210063
911.000000	96.244916
910.000000	96.290170
909.000000	96.338939
908.000000	96.389199
907.000000	96.443583
906.000000	96.502196
905.000000	96.560586
904.000000	96.615754
903.000000	96.670200
902.000000	96.728369
901.000000	96.791674
900.000000	96.857938
899.000000	96.923701
898.000000	96.986509
897.000000	97.046619
896.000000	97.106329
895.000000	97.166705
894.000000	97.226588
893.000000	97.286230
892.000000	97.348777
891.000000	97.414491
890.000000	97.476169
889.000000	97.525755
888.000000	97.564853
887.000000	97.603928
886.000000	97.650850
885.000000	97.704374
884.000000	97.759086
883.000000	97.811673
882.000000	97.861126
881.000000	97.907683
880.000000	97.954012
879.000000	98.003618
878.000000	98.055107
877.000000	98.101049
876.000000	98.136018
875.000000	98.164498
874.000000	98.198395
873.000000	98.246747
872.000000	98.308557
871.000000	98.374201
870.000000	98.432732
869.000000	98.479102
868.000000	98.516120
867.000000	98.550753
866.000000	98.588997
865.000000	98.633462
864.000000	98.683623
863.000000	98.736971
862.000000	98.790433
861.000000	98.841239
860.000000	98.886233
859.000000	98.921770
858.000000	98.947256
857.000000	98.968660
856.000000	98.994425
855.000000	99.026002
854.000000	99.055847
853.000000	99.077396
852.000000	99.093434
851.000000	99.111068
850.000000	99.131475
849.000000	99.149812
848.000000	99.164060
847.000000	99.178442
846.000000	99.196879
845.000000	99.216484
844.000000	99.229237
843.000000	99.228709
842.000000	99.215001
841.000000	99.194353
840.000000	99.173798
839.000000	99.155510
838.000000	99.136944
837.000000	99.116062
836.000000	99.093743
835.000000	99.070782
834.000000	99.046824
833.000000	99.024672
832.000000	99.011130
831.000000	99.009061
830.000000	99.011548
829.000000	99.008563
828.000000	98.996700
827.000000	98.978377
826.000000	98.957158
825.000000	98.941612
824.000000	98.947464
823.000000	98.982369
822.000000	99.030372
821.000000	99.064677
820.000000	99.075047
819.000000	99.072123
818.000000	99.067595
817.000000	99.061396
816.000000	99.048850
815.000000	99.029518
814.000000	99.004217
813.000000	98.969757
812.000000	98.920848
811.000000	98.852990
810.000000	98.761855
809.000000	98.645595
808.000000	98.509959
807.000000	98.365284
806.000000	98.215896
805.000000	98.058916
804.000000	97.895846
803.000000	97.737044
802.000000	97.591230
801.000000	97.460139
800.000000	97.348961
799.000000	97.271385
798.000000	97.235194
797.000000	97.230554
796.000000	97.241575
795.000000	97.263779
794.000000	97.301449
793.000000	97.352742
792.000000	97.406847
791.000000	97.453744
790.000000	97.489586
789.000000	97.513648
788.000000	97.525830
787.000000	97.526511
786.000000	97.514367
785.000000	97.485384
784.000000	97.437574
783.000000	97.374967
782.000000	97.304294
781.000000	97.231804
780.000000	97.167811
779.000000	97.129095
778.000000	97.128176
777.000000	97.161025
776.000000	97.211577
775.000000	97.268136
774.000000	97.330159
773.000000	97.398916
772.000000	97.467626
771.000000	97.524401
770.000000	97.563233
769.000000	97.589502
768.000000	97.614184
767.000000	97.643149
766.000000	97.672593
765.000000	97.695409
764.000000	97.710361
763.000000	97.722171
762.000000	97.733424
761.000000	97.741244
760.000000	97.744010
759.000000	97.747168
758.000000	97.758821
757.000000	97.782096
756.000000	97.814703
755.000000	97.853003
754.000000	97.892878
753.000000	97.928642
752.000000	97.955556
751.000000	97.974178
750.000000	97.990128
749.000000	98.009265
748.000000	98.034437
747.000000	98.066367
746.000000	98.105623
745.000000	98.152691
744.000000	98.205965
743.000000	98.259989
742.000000	98.308004
741.000000	98.348984
740.000000	98.390984
739.000000	98.443470
738.000000	98.505100
737.000000	98.562544
736.000000	98.603634
735.000000	98.629065
734.000000	98.649342
733.000000	98.672561
732.000000	98.697912
731.000000	98.719659
730.000000	98.734245
729.000000	98.743736
728.000000	98.754175
727.000000	98.770417
726.000000	98.791722
725.000000	98.812990
724.000000	98.830524
723.000000	98.845243
722.000000	98.860636
721.000000	98.880332
720.000000	98.907805
719.000000	98.944021
718.000000	98.982681
717.000000	99.011510
716.000000	99.022608
715.000000	99.021376
714.000000	99.023008
713.000000	99.039374
712.000000	99.069648
711.000000	99.102319
710.000000	99.125193
709.000000	99.134997
708.000000	99.138639
707.000000	99.144173
706.000000	99.150920
705.000000	99.151237
704.000000	99.141017
703.000000	99.122153
702.000000	99.092823
701.000000	99.042829
700.000000	98.964949
699.000000	98.867221
698.000000	98.768327
697.000000	98.683438
696.000000	98.620340
695.000000	98.585564
694.000000	98.584482
693.000000	98.613474
692.000000	98.658427
691.000000	98.704710
690.000000	98.746387
689.000000	98.784364
688.000000	98.819389
687.000000	98.849763
686.000000	98.874189
685.000000	98.895233
684.000000	98.920466
683.000000	98.958451
682.000000	99.010187
681.000000	99.064581
680.000000	99.106116
679.000000	99.127975
678.000000	99.134626
677.000000	99.133126
676.000000	99.128525
675.000000	99.126111
674.000000	99.132189
673.000000	99.149060
672.000000	99.171658
671.000000	99.193915
670.000000	99.217746
669.000000	99.250475
668.000000	99.286431
667.000000	99.305326
666.000000	99.302891
665.000000	99.288686
664.000000	99.272541
663.000000	99.265343
662.000000	99.274839
661.000000	99.299198
660.000000	99.328099
659.000000	99.349152
658.000000	99.353896
657.000000	99.342226
656.000000	99.323528
655.000000	99.311222
654.000000	99.313062
653.000000	99.324716
652.000000	99.335594
651.000000	99.341165
650.000000	99.346615
649.000000	99.357742
648.000000	99.371923
647.000000	99.381963
646.000000	99.387300
645.000000	99.395998
644.000000	99.414792
643.000000	99.440690
642.000000	99.462910
641.000000	99.473002
640.000000	99.471325
639.000000	99.465794
638.000000	99.466158
637.000000	99.477030
636.000000	99.495316
635.000000	99.515033
634.000000	99.534752
633.000000	99.558417
632.000000	99.587450
631.000000	99.614638
630.000000	99.629635
629.000000	99.631344
628.000000	99.632163
627.000000	99.648212
626.000000	99.682449
625.000000	99.717106
624.000000	99.728593
623.000000	99.712006
622.000000	99.688285
621.000000	99.682122
620.000000	99.694509
619.000000	99.705563
618.000000	99.701010
617.000000	99.686670
616.000000	99.678037
615.000000	99.686042
614.000000	99.710319
613.000000	99.736108
612.000000	99.740196
611.000000	99.712659
610.000000	99.675525
609.000000	99.665000
608.000000	99.689003
607.000000	99.718837
606.000000	99.725244
605.000000	99.706841
604.000000	99.673805
603.000000	99.625787
602.000000	99.565301
601.000000	99.518072
600.000000	99.514305
599.000000	99.551842
598.000000	99.594174
597.000000	99.612303
596.000000	99.612401
595.000000	99.613529
594.000000	99.618473
593.000000	99.618199
592.000000	99.611279
591.000000	99.603036
590.000000	99.594769
589.000000	99.588978
588.000000	99.596386
587.000000	99.622280
586.000000	99.650921
585.000000	99.659636
584.000000	99.644903
583.000000	99.618848
582.000000	99.588548
581.000000	99.557811
580.000000	99.545728
579.000000	99.577813
578.000000	99.651259
577.000000	99.728059
576.000000	99.773663
575.000000	99.787122
574.000000	99.790825
573.000000	99.802670
572.000000	99.821555
571.000000	99.829595
570.000000	99.806542
569.000000	99.753725
568.000000	99.703033
567.000000	99.690118
566.000000	99.717367
565.000000	99.758628
564.000000	99.793358
563.000000	99.814100
562.000000	99.808887
561.000000	99.764477
560.000000	99.691457
559.000000	99.625963
558.000000	99.592575
557.000000	99.583311
556.000000	99.582567
555.000000	99.589543
554.000000	99.605396
553.000000	99.620525
552.000000	99.630174
551.000000	99.642326
550.000000	99.658978
