PE IR       SUBTECH     SPECTRUM    ASCII       PEDS        4.00        
   -1
BH1 8-3 9 50_1.asc
24/05/15
14:01:22.00
24/05/15
14:02:58.00
Administrator
?品 082 用? Administrator 日期 Wednesday, May 15 2024
550.000000
#HDR
-1
-1
#GR
cm-1
%T
1.0
0.0
4000.000000
-1.000000
3451
8
102.450047
82.815133
#DATA
4000.000000	102.262057
3999.000000	102.260869
3998.000000	102.259592
3997.000000	102.258662
3996.000000	102.258334
3995.000000	102.258554
3994.000000	102.258899
3993.000000	102.258938
3992.000000	102.258605
3991.000000	102.258228
3990.000000	102.258174
3989.000000	102.258411
3988.000000	102.258473
3987.000000	102.257982
3986.000000	102.257259
3985.000000	102.257197
3984.000000	102.258377
3983.000000	102.260331
3982.000000	102.261775
3981.000000	102.261612
3980.000000	102.259786
3979.000000	102.257394
3978.000000	102.256002
3977.000000	102.256582
3976.000000	102.258882
3975.000000	102.261741
3974.000000	102.263940
3973.000000	102.264803
3972.000000	102.264203
3971.000000	102.262382
3970.000000	102.259936
3969.000000	102.257604
3968.000000	102.255655
3967.000000	102.253612
3966.000000	102.250936
3965.000000	102.248114
3964.000000	102.246797
3963.000000	102.248513
3962.000000	102.253055
3961.000000	102.258148
3960.000000	102.261019
3959.000000	102.260370
3958.000000	102.257024
3957.000000	102.253028
3956.000000	102.249989
3955.000000	102.248027
3954.000000	102.246091
3953.000000	102.243201
3952.000000	102.239447
3951.000000	102.235919
3950.000000	102.233609
3949.000000	102.232187
3948.000000	102.230157
3947.000000	102.226759
3946.000000	102.223558
3945.000000	102.223566
3944.000000	102.228559
3943.000000	102.237524
3942.000000	102.247384
3941.000000	102.255237
3940.000000	102.259861
3939.000000	102.261242
3938.000000	102.259765
3937.000000	102.256331
3936.000000	102.252673
3935.000000	102.250799
3934.000000	102.251524
3933.000000	102.253660
3932.000000	102.254983
3931.000000	102.254283
3930.000000	102.252171
3929.000000	102.249811
3928.000000	102.247711
3927.000000	102.245887
3926.000000	102.244448
3925.000000	102.243730
3924.000000	102.243813
3923.000000	102.244015
3922.000000	102.243308
3921.000000	102.241137
3920.000000	102.237967
3919.000000	102.235213
3918.000000	102.234413
3917.000000	102.236006
3916.000000	102.238675
3915.000000	102.240383
3914.000000	102.240111
3913.000000	102.238396
3912.000000	102.236678
3911.000000	102.235860
3910.000000	102.235778
3909.000000	102.235857
3908.000000	102.235949
3907.000000	102.236471
3906.000000	102.237653
3905.000000	102.239067
3904.000000	102.240152
3903.000000	102.240915
3902.000000	102.241782
3901.000000	102.242821
3900.000000	102.243281
3899.000000	102.242412
3898.000000	102.240380
3897.000000	102.238037
3896.000000	102.236214
3895.000000	102.235226
3894.000000	102.234981
3893.000000	102.235304
3892.000000	102.236036
3891.000000	102.236935
3890.000000	102.237566
3889.000000	102.237710
3888.000000	102.237559
3887.000000	102.237162
3886.000000	102.236216
3885.000000	102.234667
3884.000000	102.233003
3883.000000	102.231817
3882.000000	102.231334
3881.000000	102.231412
3880.000000	102.231952
3879.000000	102.233061
3878.000000	102.234730
3877.000000	102.236722
3876.000000	102.238467
3875.000000	102.239254
3874.000000	102.238846
3873.000000	102.237701
3872.000000	102.236644
3871.000000	102.236263
3870.000000	102.236649
3869.000000	102.237509
3868.000000	102.238432
3867.000000	102.239218
3866.000000	102.239761
3865.000000	102.239902
3864.000000	102.239689
3863.000000	102.239432
3862.000000	102.239426
3861.000000	102.239652
3860.000000	102.239839
3859.000000	102.239768
3858.000000	102.239561
3857.000000	102.239725
3856.000000	102.240776
3855.000000	102.242402
3854.000000	102.243278
3853.000000	102.242837
3852.000000	102.241914
3851.000000	102.241280
3850.000000	102.241264
3849.000000	102.241766
3848.000000	102.242379
3847.000000	102.242713
3846.000000	102.242791
3845.000000	102.243085
3844.000000	102.243957
3843.000000	102.245006
3842.000000	102.245486
3841.000000	102.245019
3840.000000	102.243702
3839.000000	102.241852
3838.000000	102.239838
3837.000000	102.238092
3836.000000	102.236993
3835.000000	102.236631
3834.000000	102.236755
3833.000000	102.236682
3832.000000	102.235706
3831.000000	102.233845
3830.000000	102.231876
3829.000000	102.230865
3828.000000	102.231609
3827.000000	102.234029
3826.000000	102.237315
3825.000000	102.240618
3824.000000	102.243353
3823.000000	102.244713
3822.000000	102.243749
3821.000000	102.240969
3820.000000	102.238483
3819.000000	102.237476
3818.000000	102.237827
3817.000000	102.238960
3816.000000	102.240159
3815.000000	102.241081
3814.000000	102.241593
3813.000000	102.241542
3812.000000	102.240928
3811.000000	102.239949
3810.000000	102.239103
3809.000000	102.238987
3808.000000	102.239651
3807.000000	102.240400
3806.000000	102.240554
3805.000000	102.239991
3804.000000	102.239304
3803.000000	102.238951
3802.000000	102.238653
3801.000000	102.238323
3800.000000	102.238142
3799.000000	102.238096
3798.000000	102.238393
3797.000000	102.239296
3796.000000	102.240690
3795.000000	102.242156
3794.000000	102.243308
3793.000000	102.244015
3792.000000	102.244481
3791.000000	102.245060
3790.000000	102.245945
3789.000000	102.246951
3788.000000	102.247573
3787.000000	102.247443
3786.000000	102.246742
3785.000000	102.246090
3784.000000	102.245957
3783.000000	102.246246
3782.000000	102.246560
3781.000000	102.246721
3780.000000	102.246984
3779.000000	102.247798
3778.000000	102.249379
3777.000000	102.251557
3776.000000	102.253987
3775.000000	102.256017
3774.000000	102.256712
3773.000000	102.255433
3772.000000	102.252219
3771.000000	102.247771
3770.000000	102.243707
3769.000000	102.242015
3768.000000	102.243433
3767.000000	102.247260
3766.000000	102.251992
3765.000000	102.256017
3764.000000	102.258417
3763.000000	102.259275
3762.000000	102.259298
3761.000000	102.259026
3760.000000	102.259106
3759.000000	102.260311
3758.000000	102.262164
3757.000000	102.262817
3756.000000	102.261318
3755.000000	102.259227
3754.000000	102.259244
3753.000000	102.262050
3752.000000	102.264834
3751.000000	102.264517
3750.000000	102.261504
3749.000000	102.256990
3748.000000	102.250607
3747.000000	102.242812
3746.000000	102.234837
3745.000000	102.228235
3744.000000	102.225604
3743.000000	102.227407
3742.000000	102.231352
3741.000000	102.236066
3740.000000	102.241068
3739.000000	102.246104
3738.000000	102.251090
3737.000000	102.255783
3736.000000	102.258939
3735.000000	102.259034
3734.000000	102.255798
3733.000000	102.250427
3732.000000	102.245018
3731.000000	102.241080
3730.000000	102.239047
3729.000000	102.239317
3728.000000	102.241519
3727.000000	102.243638
3726.000000	102.243510
3725.000000	102.241078
3724.000000	102.237846
3723.000000	102.234548
3722.000000	102.230813
3721.000000	102.226199
3720.000000	102.221905
3719.000000	102.220580
3718.000000	102.223209
3717.000000	102.227578
3716.000000	102.230234
3715.000000	102.229546
3714.000000	102.226206
3713.000000	102.220972
3712.000000	102.213787
3711.000000	102.205058
3710.000000	102.196211
3709.000000	102.188923
3708.000000	102.184129
3707.000000	102.181959
3706.000000	102.181888
3705.000000	102.182981
3704.000000	102.183934
3703.000000	102.183223
3702.000000	102.180772
3701.000000	102.178272
3700.000000	102.176927
3699.000000	102.176467
3698.000000	102.175540
3697.000000	102.172223
3696.000000	102.165656
3695.000000	102.157416
3694.000000	102.150669
3693.000000	102.147633
3692.000000	102.147823
3691.000000	102.148310
3690.000000	102.146840
3689.000000	102.145317
3688.000000	102.146868
3687.000000	102.150304
3686.000000	102.152677
3685.000000	102.152616
3684.000000	102.149303
3683.000000	102.141964
3682.000000	102.130910
3681.000000	102.117828
3680.000000	102.103792
3679.000000	102.088952
3678.000000	102.073303
3677.000000	102.055484
3676.000000	102.034930
3675.000000	102.016849
3674.000000	102.005134
3673.000000	101.997970
3672.000000	101.994599
3671.000000	101.993403
3670.000000	101.990960
3669.000000	101.986477
3668.000000	101.980438
3667.000000	101.972676
3666.000000	101.963478
3665.000000	101.952783
3664.000000	101.940022
3663.000000	101.925023
3662.000000	101.908184
3661.000000	101.890682
3660.000000	101.874342
3659.000000	101.861452
3658.000000	101.852973
3657.000000	101.846517
3656.000000	101.837503
3655.000000	101.822827
3654.000000	101.804129
3653.000000	101.787743
3652.000000	101.780095
3651.000000	101.781117
3650.000000	101.783124
3649.000000	101.779040
3648.000000	101.769119
3647.000000	101.756572
3646.000000	101.742673
3645.000000	101.728110
3644.000000	101.714996
3643.000000	101.705451
3642.000000	101.698329
3641.000000	101.689857
3640.000000	101.677729
3639.000000	101.664247
3638.000000	101.653930
3637.000000	101.648453
3636.000000	101.644613
3635.000000	101.636696
3634.000000	101.621278
3633.000000	101.600407
3632.000000	101.581309
3631.000000	101.572531
3630.000000	101.576995
3629.000000	101.588467
3628.000000	101.597509
3627.000000	101.598373
3626.000000	101.592512
3625.000000	101.585530
3624.000000	101.580282
3623.000000	101.576009
3622.000000	101.572541
3621.000000	101.571980
3620.000000	101.576875
3619.000000	101.587498
3618.000000	101.600572
3617.000000	101.611716
3616.000000	101.620113
3615.000000	101.628456
3614.000000	101.639448
3613.000000	101.653306
3612.000000	101.667653
3611.000000	101.679725
3610.000000	101.689073
3609.000000	101.697791
3608.000000	101.709072
3607.000000	101.724385
3606.000000	101.741391
3605.000000	101.755908
3604.000000	101.764995
3603.000000	101.768360
3602.000000	101.767645
3601.000000	101.764252
3600.000000	101.758913
3599.000000	101.753342
3598.000000	101.750938
3597.000000	101.755249
3596.000000	101.766692
3595.000000	101.780792
3594.000000	101.791701
3593.000000	101.797048
3592.000000	101.799231
3591.000000	101.802851
3590.000000	101.810139
3589.000000	101.818053
3588.000000	101.821300
3587.000000	101.819613
3586.000000	101.817716
3585.000000	101.818595
3584.000000	101.821052
3583.000000	101.822703
3582.000000	101.822641
3581.000000	101.821769
3580.000000	101.821103
3579.000000	101.820465
3578.000000	101.819175
3577.000000	101.817263
3576.000000	101.815688
3575.000000	101.815250
3574.000000	101.815860
3573.000000	101.816636
3572.000000	101.816397
3571.000000	101.814744
3570.000000	101.812612
3569.000000	101.810988
3568.000000	101.809286
3567.000000	101.806453
3566.000000	101.802947
3565.000000	101.799966
3564.000000	101.798047
3563.000000	101.796793
3562.000000	101.795721
3561.000000	101.795403
3560.000000	101.797194
3559.000000	101.801595
3558.000000	101.807341
3557.000000	101.812358
3556.000000	101.815268
3555.000000	101.815688
3554.000000	101.813615
3553.000000	101.809403
3552.000000	101.804030
3551.000000	101.798847
3550.000000	101.794789
3549.000000	101.791957
3548.000000	101.789890
3547.000000	101.788431
3546.000000	101.788333
3545.000000	101.790752
3544.000000	101.795903
3543.000000	101.802491
3542.000000	101.808403
3541.000000	101.812070
3540.000000	101.813363
3539.000000	101.813467
3538.000000	101.813720
3537.000000	101.814439
3536.000000	101.814931
3535.000000	101.814807
3534.000000	101.814885
3533.000000	101.816239
3532.000000	101.818640
3531.000000	101.820554
3530.000000	101.820986
3529.000000	101.820831
3528.000000	101.821869
3527.000000	101.824693
3526.000000	101.828168
3525.000000	101.830718
3524.000000	101.831722
3523.000000	101.831651
3522.000000	101.831360
3521.000000	101.831524
3520.000000	101.832476
3519.000000	101.834220
3518.000000	101.836445
3517.000000	101.838665
3516.000000	101.840538
3515.000000	101.842040
3514.000000	101.843377
3513.000000	101.844788
3512.000000	101.846402
3511.000000	101.848210
3510.000000	101.850098
3509.000000	101.851871
3508.000000	101.853317
3507.000000	101.854345
3506.000000	101.855078
3505.000000	101.855773
3504.000000	101.856647
3503.000000	101.857757
3502.000000	101.859023
3501.000000	101.860331
3500.000000	101.861606
3499.000000	101.862803
3498.000000	101.863904
3497.000000	101.865005
3496.000000	101.866348
3495.000000	101.868109
3494.000000	101.870106
3493.000000	101.871792
3492.000000	101.872682
3491.000000	101.872777
3490.000000	101.872635
3489.000000	101.873011
3488.000000	101.874318
3487.000000	101.876360
3486.000000	101.878391
3485.000000	101.879607
3484.000000	101.879747
3483.000000	101.879377
3482.000000	101.879496
3481.000000	101.880630
3480.000000	101.882291
3479.000000	101.883423
3478.000000	101.883437
3477.000000	101.882701
3476.000000	101.882173
3475.000000	101.882568
3474.000000	101.883776
3473.000000	101.884939
3472.000000	101.885077
3471.000000	101.883825
3470.000000	101.881695
3469.000000	101.879654
3468.000000	101.878328
3467.000000	101.877680
3466.000000	101.877400
3465.000000	101.877369
3464.000000	101.877600
3463.000000	101.877901
3462.000000	101.877897
3461.000000	101.877436
3460.000000	101.876732
3459.000000	101.875923
3458.000000	101.874638
3457.000000	101.872317
3456.000000	101.869027
3455.000000	101.865872
3454.000000	101.864278
3453.000000	101.864771
3452.000000	101.866561
3451.000000	101.868156
3450.000000	101.868659
3449.000000	101.868251
3448.000000	101.867629
3447.000000	101.867168
3446.000000	101.866605
3445.000000	101.865407
3444.000000	101.863360
3443.000000	101.860858
3442.000000	101.858745
3441.000000	101.857691
3440.000000	101.857611
3439.000000	101.857701
3438.000000	101.857078
3437.000000	101.855452
3436.000000	101.853235
3435.000000	101.851187
3434.000000	101.849959
3433.000000	101.849645
3432.000000	101.849644
3431.000000	101.849237
3430.000000	101.848542
3429.000000	101.848545
3428.000000	101.849922
3427.000000	101.852164
3426.000000	101.854152
3425.000000	101.855298
3424.000000	101.855704
3423.000000	101.855546
3422.000000	101.854939
3421.000000	101.854282
3420.000000	101.853991
3419.000000	101.853808
3418.000000	101.853125
3417.000000	101.852087
3416.000000	101.851643
3415.000000	101.852166
3414.000000	101.852649
3413.000000	101.851886
3412.000000	101.850034
3411.000000	101.848472
3410.000000	101.848256
3409.000000	101.849118
3408.000000	101.849919
3407.000000	101.849636
3406.000000	101.848016
3405.000000	101.845639
3404.000000	101.843426
3403.000000	101.841998
3402.000000	101.841360
3401.000000	101.841035
3400.000000	101.840485
3399.000000	101.839545
3398.000000	101.838632
3397.000000	101.838422
3396.000000	101.839150
3395.000000	101.840272
3394.000000	101.841032
3393.000000	101.841375
3392.000000	101.841979
3391.000000	101.843320
3390.000000	101.845007
3389.000000	101.846201
3388.000000	101.846516
3387.000000	101.846261
3386.000000	101.846040
3385.000000	101.846232
3384.000000	101.846775
3383.000000	101.847278
3382.000000	101.847331
3381.000000	101.846822
3380.000000	101.846053
3379.000000	101.845511
3378.000000	101.845425
3377.000000	101.845574
3376.000000	101.845596
3375.000000	101.845516
3374.000000	101.845843
3373.000000	101.847057
3372.000000	101.849071
3371.000000	101.851250
3370.000000	101.852929
3369.000000	101.853830
3368.000000	101.853972
3367.000000	101.853466
3366.000000	101.852576
3365.000000	101.851837
3364.000000	101.851834
3363.000000	101.852765
3362.000000	101.854314
3361.000000	101.855870
3360.000000	101.856936
3359.000000	101.857355
3358.000000	101.857243
3357.000000	101.856842
3356.000000	101.856354
3355.000000	101.855860
3354.000000	101.855425
3353.000000	101.855258
3352.000000	101.855649
3351.000000	101.856702
3350.000000	101.858168
3349.000000	101.859556
3348.000000	101.860459
3347.000000	101.860762
3346.000000	101.860639
3345.000000	101.860456
3344.000000	101.860515
3343.000000	101.860835
3342.000000	101.861226
3341.000000	101.861565
3340.000000	101.861954
3339.000000	101.862536
3338.000000	101.863249
3337.000000	101.863851
3336.000000	101.864181
3335.000000	101.864309
3334.000000	101.864436
3333.000000	101.864705
3332.000000	101.865123
3331.000000	101.865591
3330.000000	101.865962
3329.000000	101.866135
3328.000000	101.866176
3327.000000	101.866334
3326.000000	101.866833
3325.000000	101.867652
3324.000000	101.868543
3323.000000	101.869279
3322.000000	101.869865
3321.000000	101.870455
3320.000000	101.871062
3319.000000	101.871431
3318.000000	101.871300
3317.000000	101.870778
3316.000000	101.870385
3315.000000	101.870546
3314.000000	101.871101
3313.000000	101.871460
3312.000000	101.871294
3311.000000	101.870932
3310.000000	101.870934
3309.000000	101.871406
3308.000000	101.871917
3307.000000	101.872111
3306.000000	101.872278
3305.000000	101.873109
3304.000000	101.874891
3303.000000	101.877052
3302.000000	101.878616
3301.000000	101.879120
3300.000000	101.879048
3299.000000	101.879358
3298.000000	101.880619
3297.000000	101.882678
3296.000000	101.884966
3295.000000	101.886850
3294.000000	101.887690
3293.000000	101.887015
3292.000000	101.885020
3291.000000	101.882782
3290.000000	101.881583
3289.000000	101.881839
3288.000000	101.882871
3287.000000	101.883620
3286.000000	101.883553
3285.000000	101.882785
3284.000000	101.881603
3283.000000	101.880238
3282.000000	101.879086
3281.000000	101.878736
3280.000000	101.879458
3279.000000	101.880801
3278.000000	101.882006
3277.000000	101.882837
3276.000000	101.883740
3275.000000	101.885090
3274.000000	101.886528
3273.000000	101.887231
3272.000000	101.886806
3271.000000	101.885704
3270.000000	101.884840
3269.000000	101.884813
3268.000000	101.885498
3267.000000	101.886263
3266.000000	101.886534
3265.000000	101.886231
3264.000000	101.885695
3263.000000	101.885225
3262.000000	101.884785
3261.000000	101.884236
3260.000000	101.883719
3259.000000	101.883631
3258.000000	101.884196
3257.000000	101.885197
3256.000000	101.886155
3255.000000	101.886684
3254.000000	101.886645
3253.000000	101.886096
3252.000000	101.885268
3251.000000	101.884549
3250.000000	101.884286
3249.000000	101.884502
3248.000000	101.884899
3247.000000	101.885236
3246.000000	101.885659
3245.000000	101.886497
3244.000000	101.887803
3243.000000	101.889176
3242.000000	101.890087
3241.000000	101.890312
3240.000000	101.890037
3239.000000	101.889689
3238.000000	101.889673
3237.000000	101.890162
3236.000000	101.890993
3235.000000	101.891736
3234.000000	101.892022
3233.000000	101.891917
3232.000000	101.891932
3231.000000	101.892581
3230.000000	101.893959
3229.000000	101.895741
3228.000000	101.897442
3227.000000	101.898610
3226.000000	101.898916
3225.000000	101.898442
3224.000000	101.897756
3223.000000	101.897456
3222.000000	101.897585
3221.000000	101.897677
3220.000000	101.897423
3219.000000	101.897115
3218.000000	101.897294
3217.000000	101.898107
3216.000000	101.899185
3215.000000	101.900076
3214.000000	101.900646
3213.000000	101.901023
3212.000000	101.901387
3211.000000	101.901879
3210.000000	101.902595
3209.000000	101.903532
3208.000000	101.904570
3207.000000	101.905560
3206.000000	101.906414
3205.000000	101.907107
3204.000000	101.907632
3203.000000	101.908014
3202.000000	101.908372
3201.000000	101.908879
3200.000000	101.909611
3199.000000	101.910447
3198.000000	101.911158
3197.000000	101.911667
3196.000000	101.912134
3195.000000	101.912781
3194.000000	101.913634
3193.000000	101.914511
3192.000000	101.915249
3191.000000	101.915891
3190.000000	101.916583
3189.000000	101.917340
3188.000000	101.918000
3187.000000	101.918426
3186.000000	101.918670
3185.000000	101.918958
3184.000000	101.919508
3183.000000	101.920401
3182.000000	101.921564
3181.000000	101.922791
3180.000000	101.923826
3179.000000	101.924508
3178.000000	101.924842
3177.000000	101.924984
3176.000000	101.925124
3175.000000	101.925373
3174.000000	101.925770
3173.000000	101.926328
3172.000000	101.927052
3171.000000	101.927865
3170.000000	101.928591
3169.000000	101.929073
3168.000000	101.929338
3167.000000	101.929580
3166.000000	101.929926
3165.000000	101.930267
3164.000000	101.930386
3163.000000	101.930219
3162.000000	101.929978
3161.000000	101.929993
3160.000000	101.930429
3159.000000	101.931181
3158.000000	101.931994
3157.000000	101.932687
3156.000000	101.933276
3155.000000	101.933859
3154.000000	101.934420
3153.000000	101.934774
3152.000000	101.934766
3151.000000	101.934508
3150.000000	101.934380
3149.000000	101.934676
3148.000000	101.935294
3147.000000	101.935775
3146.000000	101.935762
3145.000000	101.935408
3144.000000	101.935299
3143.000000	101.935861
3142.000000	101.936937
3141.000000	101.937920
3140.000000	101.938421
3139.000000	101.938702
3138.000000	101.939332
3137.000000	101.940534
3136.000000	101.942048
3135.000000	101.943493
3134.000000	101.944630
3133.000000	101.945283
3132.000000	101.945348
3131.000000	101.945016
3130.000000	101.944781
3129.000000	101.945028
3128.000000	101.945688
3127.000000	101.946359
3126.000000	101.946650
3125.000000	101.946407
3124.000000	101.945787
3123.000000	101.945234
3122.000000	101.945223
3121.000000	101.945970
3120.000000	101.947341
3119.000000	101.948935
3118.000000	101.950204
3117.000000	101.950751
3116.000000	101.950866
3115.000000	101.951543
3114.000000	101.953510
3113.000000	101.956366
3112.000000	101.959094
3111.000000	101.961276
3110.000000	101.963139
3109.000000	101.964460
3108.000000	101.964460
3107.000000	101.963156
3106.000000	101.962129
3105.000000	101.963102
3104.000000	101.966127
3103.000000	101.969656
3102.000000	101.972060
3101.000000	101.972797
3100.000000	101.972367
3099.000000	101.971805
3098.000000	101.971919
3097.000000	101.972532
3096.000000	101.972582
3095.000000	101.971313
3094.000000	101.969154
3093.000000	101.967141
3092.000000	101.965841
3091.000000	101.965345
3090.000000	101.965849
3089.000000	101.967422
3088.000000	101.969346
3087.000000	101.970599
3086.000000	101.971157
3085.000000	101.972074
3084.000000	101.974012
3083.000000	101.976298
3082.000000	101.977690
3081.000000	101.977604
3080.000000	101.976281
3079.000000	101.974344
3078.000000	101.972600
3077.000000	101.971814
3076.000000	101.972153
3075.000000	101.972997
3074.000000	101.973727
3073.000000	101.974579
3072.000000	101.976277
3071.000000	101.978973
3070.000000	101.981947
3069.000000	101.984216
3068.000000	101.985087
3067.000000	101.984355
3066.000000	101.982584
3065.000000	101.981227
3064.000000	101.981722
3063.000000	101.984299
3062.000000	101.987884
3061.000000	101.991247
3060.000000	101.994018
3059.000000	101.996302
3058.000000	101.997925
3057.000000	101.998527
3056.000000	101.998111
3055.000000	101.997100
3054.000000	101.996016
3053.000000	101.995358
3052.000000	101.995573
3051.000000	101.996638
3050.000000	101.997723
3049.000000	101.997890
3048.000000	101.997324
3047.000000	101.997432
3046.000000	101.999387
3045.000000	102.002854
3044.000000	102.006354
3043.000000	102.008706
3042.000000	102.009756
3041.000000	102.009872
3040.000000	102.009324
3039.000000	102.008454
3038.000000	102.008032
3037.000000	102.008980
3036.000000	102.011761
3035.000000	102.016214
3034.000000	102.021745
3033.000000	102.027429
3032.000000	102.032208
3031.000000	102.035475
3030.000000	102.037557
3029.000000	102.039300
3028.000000	102.041087
3027.000000	102.042557
3026.000000	102.043435
3025.000000	102.044347
3024.000000	102.046480
3023.000000	102.050511
3022.000000	102.056002
3021.000000	102.061569
3020.000000	102.065484
3019.000000	102.066599
3018.000000	102.065260
3017.000000	102.063553
3016.000000	102.064113
3015.000000	102.068328
3014.000000	102.075583
3013.000000	102.084110
3012.000000	102.092533
3011.000000	102.100500
3010.000000	102.107892
3009.000000	102.113755
3008.000000	102.116695
3007.000000	102.116713
3006.000000	102.116178
3005.000000	102.117968
3004.000000	102.122525
3003.000000	102.127737
3002.000000	102.132018
3001.000000	102.136365
3000.000000	102.142394
2999.000000	102.149367
2998.000000	102.154739
2997.000000	102.157511
2996.000000	102.159614
2995.000000	102.163774
2994.000000	102.171070
2993.000000	102.180948
2992.000000	102.192247
2991.000000	102.203294
2990.000000	102.211866
2989.000000	102.216505
2988.000000	102.218027
2987.000000	102.218991
2986.000000	102.221348
2985.000000	102.224960
2984.000000	102.228552
2983.000000	102.231701
2982.000000	102.235594
2981.000000	102.241899
2980.000000	102.250776
2979.000000	102.260055
2978.000000	102.266740
2977.000000	102.269527
2976.000000	102.269492
2975.000000	102.268095
2974.000000	102.265028
2973.000000	102.258912
2972.000000	102.249862
2971.000000	102.240202
2970.000000	102.232072
2969.000000	102.225067
2968.000000	102.217029
2967.000000	102.206800
2966.000000	102.195482
2965.000000	102.185201
2964.000000	102.177411
2963.000000	102.172330
2962.000000	102.169083
2961.000000	102.166032
2960.000000	102.161835
2959.000000	102.156977
2958.000000	102.153738
2957.000000	102.153805
2956.000000	102.156037
2955.000000	102.157262
2954.000000	102.155277
2953.000000	102.150419
2952.000000	102.144318
2951.000000	102.138178
2950.000000	102.132838
2949.000000	102.129549
2948.000000	102.129220
2947.000000	102.130670
2946.000000	102.130663
2945.000000	102.126788
2944.000000	102.120307
2943.000000	102.115466
2942.000000	102.115518
2941.000000	102.119584
2940.000000	102.123475
2939.000000	102.123353
2938.000000	102.118345
2937.000000	102.110051
2936.000000	102.100626
2935.000000	102.091751
2934.000000	102.084703
2933.000000	102.080396
2932.000000	102.079103
2931.000000	102.080558
2930.000000	102.084370
2929.000000	102.090092
2928.000000	102.096841
2927.000000	102.103175
2926.000000	102.107497
2925.000000	102.108865
2924.000000	102.107988
2923.000000	102.107720
2922.000000	102.111711
2921.000000	102.121284
2920.000000	102.133426
2919.000000	102.142760
2918.000000	102.146385
2917.000000	102.146324
2916.000000	102.147041
2915.000000	102.150931
2914.000000	102.156535
2913.000000	102.160711
2912.000000	102.161787
2911.000000	102.160665
2910.000000	102.159666
2909.000000	102.160736
2908.000000	102.164511
2907.000000	102.170442
2906.000000	102.177286
2905.000000	102.183549
2904.000000	102.188072
2903.000000	102.190740
2902.000000	102.192628
2901.000000	102.194971
2900.000000	102.198171
2899.000000	102.201572
2898.000000	102.204215
2897.000000	102.205290
2896.000000	102.204324
2895.000000	102.201776
2894.000000	102.199375
2893.000000	102.198875
2892.000000	102.200205
2891.000000	102.201555
2890.000000	102.201689
2889.000000	102.201372
2888.000000	102.201954
2887.000000	102.203298
2886.000000	102.204115
2885.000000	102.203976
2884.000000	102.203886
2883.000000	102.204686
2882.000000	102.205766
2881.000000	102.205864
2880.000000	102.204587
2879.000000	102.202512
2878.000000	102.199867
2877.000000	102.195683
2876.000000	102.188857
2875.000000	102.180144
2874.000000	102.172569
2873.000000	102.169150
2872.000000	102.170304
2871.000000	102.173632
2870.000000	102.176059
2869.000000	102.175792
2868.000000	102.172590
2867.000000	102.167404
2866.000000	102.162177
2865.000000	102.158820
2864.000000	102.157332
2863.000000	102.155452
2862.000000	102.150996
2861.000000	102.144149
2860.000000	102.136810
2859.000000	102.130396
2858.000000	102.125392
2857.000000	102.122366
2856.000000	102.121805
2855.000000	102.122955
2854.000000	102.124189
2853.000000	102.125043
2852.000000	102.126775
2851.000000	102.130341
2850.000000	102.134677
2849.000000	102.137612
2848.000000	102.137945
2847.000000	102.136011
2846.000000	102.132792
2845.000000	102.129245
2844.000000	102.126232
2843.000000	102.124372
2842.000000	102.123840
2841.000000	102.124554
2840.000000	102.126412
2839.000000	102.129050
2838.000000	102.131582
2837.000000	102.133116
2836.000000	102.133554
2835.000000	102.133545
2834.000000	102.133582
2833.000000	102.133528
2832.000000	102.133185
2831.000000	102.132978
2830.000000	102.133683
2829.000000	102.135528
2828.000000	102.137828
2827.000000	102.139511
2826.000000	102.139890
2825.000000	102.139071
2824.000000	102.137881
2823.000000	102.137459
2822.000000	102.138463
2821.000000	102.140553
2820.000000	102.142591
2819.000000	102.143605
2818.000000	102.143562
2817.000000	102.143149
2816.000000	102.143068
2815.000000	102.143561
2814.000000	102.144505
2813.000000	102.145664
2812.000000	102.146816
2811.000000	102.147816
2810.000000	102.148674
2809.000000	102.149531
2808.000000	102.150490
2807.000000	102.151433
2806.000000	102.152111
2805.000000	102.152450
2804.000000	102.152679
2803.000000	102.153142
2802.000000	102.153998
2801.000000	102.155181
2800.000000	102.156521
2799.000000	102.157849
2798.000000	102.159002
2797.000000	102.159831
2796.000000	102.160305
2795.000000	102.160588
2794.000000	102.160925
2793.000000	102.161393
2792.000000	102.161801
2791.000000	102.161935
2790.000000	102.161860
2789.000000	102.161912
2788.000000	102.162373
2787.000000	102.163181
2786.000000	102.163982
2785.000000	102.164425
2784.000000	102.164438
2783.000000	102.164286
2782.000000	102.164421
2781.000000	102.165130
2780.000000	102.166279
2779.000000	102.167374
2778.000000	102.168064
2777.000000	102.168527
2776.000000	102.169233
2775.000000	102.170365
2774.000000	102.171659
2773.000000	102.172736
2772.000000	102.173458
2771.000000	102.173919
2770.000000	102.174283
2769.000000	102.174700
2768.000000	102.175286
2767.000000	102.176058
2766.000000	102.176899
2765.000000	102.177644
2764.000000	102.178234
2763.000000	102.178739
2762.000000	102.179238
2761.000000	102.179739
2760.000000	102.180236
2759.000000	102.180789
2758.000000	102.181465
2757.000000	102.182237
2756.000000	102.183000
2755.000000	102.183686
2754.000000	102.184309
2753.000000	102.184904
2752.000000	102.185454
2751.000000	102.185939
2750.000000	102.186416
2749.000000	102.186995
2748.000000	102.187718
2747.000000	102.188485
2746.000000	102.189130
2745.000000	102.189571
2744.000000	102.189866
2743.000000	102.190161
2742.000000	102.190615
2741.000000	102.191321
2740.000000	102.192218
2739.000000	102.193053
2738.000000	102.193560
2737.000000	102.193687
2736.000000	102.193630
2735.000000	102.193656
2734.000000	102.193862
2733.000000	102.194154
2732.000000	102.194348
2731.000000	102.194309
2730.000000	102.194072
2729.000000	102.193850
2728.000000	102.193842
2727.000000	102.194010
2726.000000	102.194141
2725.000000	102.194128
2724.000000	102.194120
2723.000000	102.194332
2722.000000	102.194817
2721.000000	102.195464
2720.000000	102.196156
2719.000000	102.196883
2718.000000	102.197706
2717.000000	102.198597
2716.000000	102.199300
2715.000000	102.199449
2714.000000	102.198949
2713.000000	102.198222
2712.000000	102.197929
2711.000000	102.198351
2710.000000	102.199141
2709.000000	102.199713
2708.000000	102.199792
2707.000000	102.199538
2706.000000	102.199234
2705.000000	102.199013
2704.000000	102.198911
2703.000000	102.199044
2702.000000	102.199571
2701.000000	102.200469
2700.000000	102.201375
2699.000000	102.201760
2698.000000	102.201319
2697.000000	102.200152
2696.000000	102.198651
2695.000000	102.197363
2694.000000	102.196795
2693.000000	102.197113
2692.000000	102.197907
2691.000000	102.198490
2690.000000	102.198639
2689.000000	102.198789
2688.000000	102.199352
2687.000000	102.200171
2686.000000	102.200847
2685.000000	102.201323
2684.000000	102.201791
2683.000000	102.202273
2682.000000	102.202669
2681.000000	102.203073
2680.000000	102.203618
2679.000000	102.204081
2678.000000	102.204068
2677.000000	102.203614
2676.000000	102.203180
2675.000000	102.203023
2674.000000	102.202954
2673.000000	102.202786
2672.000000	102.202612
2671.000000	102.202510
2670.000000	102.202285
2669.000000	102.201702
2668.000000	102.200813
2667.000000	102.199939
2666.000000	102.199444
2665.000000	102.199539
2664.000000	102.200210
2663.000000	102.201169
2662.000000	102.201958
2661.000000	102.202292
2660.000000	102.202259
2659.000000	102.202133
2658.000000	102.202032
2657.000000	102.201831
2656.000000	102.201451
2655.000000	102.201076
2654.000000	102.200990
2653.000000	102.201242
2652.000000	102.201580
2651.000000	102.201702
2650.000000	102.201563
2649.000000	102.201375
2648.000000	102.201351
2647.000000	102.201488
2646.000000	102.201595
2645.000000	102.201471
2644.000000	102.201044
2643.000000	102.200409
2642.000000	102.199840
2641.000000	102.199671
2640.000000	102.200070
2639.000000	102.200894
2638.000000	102.201778
2637.000000	102.202387
2636.000000	102.202522
2635.000000	102.202088
2634.000000	102.201217
2633.000000	102.200408
2632.000000	102.200280
2631.000000	102.201079
2630.000000	102.202509
2629.000000	102.204042
2628.000000	102.205377
2627.000000	102.206451
2626.000000	102.207136
2625.000000	102.207173
2624.000000	102.206399
2623.000000	102.204926
2622.000000	102.203194
2621.000000	102.201870
2620.000000	102.201459
2619.000000	102.201887
2618.000000	102.202535
2617.000000	102.202856
2616.000000	102.202876
2615.000000	102.202899
2614.000000	102.203001
2613.000000	102.203042
2612.000000	102.203004
2611.000000	102.203020
2610.000000	102.203101
2609.000000	102.203120
2608.000000	102.203054
2607.000000	102.203030
2606.000000	102.203170
2605.000000	102.203562
2604.000000	102.204332
2603.000000	102.205513
2602.000000	102.206845
2601.000000	102.207884
2600.000000	102.208347
2599.000000	102.208219
2598.000000	102.207624
2597.000000	102.206716
2596.000000	102.205651
2595.000000	102.204551
2594.000000	102.203644
2593.000000	102.203460
2592.000000	102.204579
2591.000000	102.206983
2590.000000	102.209713
2589.000000	102.211501
2588.000000	102.211850
2587.000000	102.211095
2586.000000	102.209728
2585.000000	102.208041
2584.000000	102.206367
2583.000000	102.205190
2582.000000	102.204835
2581.000000	102.205258
2580.000000	102.206181
2579.000000	102.207260
2578.000000	102.208095
2577.000000	102.208328
2576.000000	102.207925
2575.000000	102.207220
2574.000000	102.206569
2573.000000	102.206052
2572.000000	102.205588
2571.000000	102.205195
2570.000000	102.204992
2569.000000	102.205052
2568.000000	102.205389
2567.000000	102.205975
2566.000000	102.206634
2565.000000	102.207020
2564.000000	102.206946
2563.000000	102.206714
2562.000000	102.206926
2561.000000	102.207899
2560.000000	102.209350
2559.000000	102.210642
2558.000000	102.211382
2557.000000	102.211634
2556.000000	102.211646
2555.000000	102.211493
2554.000000	102.211047
2553.000000	102.210324
2552.000000	102.209718
2551.000000	102.209699
2550.000000	102.210315
2549.000000	102.211099
2548.000000	102.211473
2547.000000	102.211299
2546.000000	102.210902
2545.000000	102.210700
2544.000000	102.210810
2543.000000	102.211060
2542.000000	102.211273
2541.000000	102.211459
2540.000000	102.211724
2539.000000	102.212083
2538.000000	102.212460
2537.000000	102.212828
2536.000000	102.213241
2535.000000	102.213757
2534.000000	102.214380
2533.000000	102.215072
2532.000000	102.215755
2531.000000	102.216288
2530.000000	102.216549
2529.000000	102.216575
2528.000000	102.216563
2527.000000	102.216682
2526.000000	102.216922
2525.000000	102.217136
2524.000000	102.217212
2523.000000	102.217173
2522.000000	102.217158
2521.000000	102.217312
2520.000000	102.217660
2519.000000	102.218090
2518.000000	102.218414
2517.000000	102.218525
2516.000000	102.218475
2515.000000	102.218435
2514.000000	102.218568
2513.000000	102.218919
2512.000000	102.219411
2511.000000	102.219880
2510.000000	102.220176
2509.000000	102.220246
2508.000000	102.220160
2507.000000	102.220087
2506.000000	102.220190
2505.000000	102.220537
2504.000000	102.221083
2503.000000	102.221704
2502.000000	102.222300
2501.000000	102.222841
2500.000000	102.223325
2499.000000	102.223730
2498.000000	102.224053
2497.000000	102.224377
2496.000000	102.224800
2495.000000	102.225254
2494.000000	102.225511
2493.000000	102.225458
2492.000000	102.225267
2491.000000	102.225213
2490.000000	102.225368
2489.000000	102.225589
2488.000000	102.225734
2487.000000	102.225805
2486.000000	102.225897
2485.000000	102.226082
2484.000000	102.226369
2483.000000	102.226701
2482.000000	102.226972
2481.000000	102.227094
2480.000000	102.227104
2479.000000	102.227189
2478.000000	102.227515
2477.000000	102.228050
2476.000000	102.228568
2475.000000	102.228870
2474.000000	102.228960
2473.000000	102.229001
2472.000000	102.229153
2471.000000	102.229474
2470.000000	102.229941
2469.000000	102.230495
2468.000000	102.231066
2467.000000	102.231573
2466.000000	102.231967
2465.000000	102.232253
2464.000000	102.232466
2463.000000	102.232646
2462.000000	102.232839
2461.000000	102.233093
2460.000000	102.233441
2459.000000	102.233879
2458.000000	102.234378
2457.000000	102.234895
2456.000000	102.235373
2455.000000	102.235745
2454.000000	102.235986
2453.000000	102.236155
2452.000000	102.236352
2451.000000	102.236625
2450.000000	102.236957
2449.000000	102.237333
2448.000000	102.237782
2447.000000	102.238327
2446.000000	102.238924
2445.000000	102.239501
2444.000000	102.240017
2443.000000	102.240461
2442.000000	102.240847
2441.000000	102.241247
2440.000000	102.241769
2439.000000	102.242400
2438.000000	102.242942
2437.000000	102.243203
2436.000000	102.243184
2435.000000	102.243073
2434.000000	102.243102
2433.000000	102.243427
2432.000000	102.244108
2431.000000	102.245018
2430.000000	102.245867
2429.000000	102.246431
2428.000000	102.246728
2427.000000	102.246924
2426.000000	102.247112
2425.000000	102.247270
2424.000000	102.247387
2423.000000	102.247494
2422.000000	102.247588
2421.000000	102.247697
2420.000000	102.248005
2419.000000	102.248701
2418.000000	102.249680
2417.000000	102.250578
2416.000000	102.251158
2415.000000	102.251508
2414.000000	102.251867
2413.000000	102.252352
2412.000000	102.252913
2411.000000	102.253484
2410.000000	102.254075
2409.000000	102.254727
2408.000000	102.255413
2407.000000	102.256005
2406.000000	102.256385
2405.000000	102.256577
2404.000000	102.256752
2403.000000	102.257037
2402.000000	102.257408
2401.000000	102.257786
2400.000000	102.258184
2399.000000	102.258680
2398.000000	102.259279
2397.000000	102.259867
2396.000000	102.260342
2395.000000	102.260727
2394.000000	102.261109
2393.000000	102.261517
2392.000000	102.261911
2391.000000	102.262273
2390.000000	102.262650
2389.000000	102.263070
2388.000000	102.263477
2387.000000	102.263790
2386.000000	102.264011
2385.000000	102.264235
2384.000000	102.264549
2383.000000	102.264945
2382.000000	102.265355
2381.000000	102.265754
2380.000000	102.266198
2379.000000	102.266728
2378.000000	102.267268
2377.000000	102.267668
2376.000000	102.267868
2375.000000	102.267936
2374.000000	102.267973
2373.000000	102.268015
2372.000000	102.268095
2371.000000	102.268314
2370.000000	102.268731
2369.000000	102.269249
2368.000000	102.269663
2367.000000	102.269895
2366.000000	102.270026
2365.000000	102.270182
2364.000000	102.270427
2363.000000	102.270799
2362.000000	102.271335
2361.000000	102.271981
2360.000000	102.272543
2359.000000	102.272831
2358.000000	102.272821
2357.000000	102.272661
2356.000000	102.272525
2355.000000	102.272493
2354.000000	102.272518
2353.000000	102.272580
2352.000000	102.272717
2351.000000	102.272965
2350.000000	102.273316
2349.000000	102.273684
2348.000000	102.273979
2347.000000	102.274124
2346.000000	102.274181
2345.000000	102.274389
2344.000000	102.274870
2343.000000	102.275449
2342.000000	102.275684
2341.000000	102.275418
2340.000000	102.274907
2339.000000	102.274511
2338.000000	102.274239
2337.000000	102.273873
2336.000000	102.273472
2335.000000	102.273365
2334.000000	102.273745
2333.000000	102.274352
2332.000000	102.274784
2331.000000	102.274789
2330.000000	102.274507
2329.000000	102.274053
2328.000000	102.273526
2327.000000	102.272836
2326.000000	102.272056
2325.000000	102.271351
2324.000000	102.270844
2323.000000	102.270515
2322.000000	102.270332
2321.000000	102.270412
2320.000000	102.270772
2319.000000	102.271110
2318.000000	102.271044
2317.000000	102.270458
2316.000000	102.269635
2315.000000	102.268900
2314.000000	102.268422
2313.000000	102.268072
2312.000000	102.267629
2311.000000	102.266830
2310.000000	102.265665
2309.000000	102.264360
2308.000000	102.263270
2307.000000	102.262484
2306.000000	102.261843
2305.000000	102.261134
2304.000000	102.260360
2303.000000	102.259632
2302.000000	102.259051
2301.000000	102.258596
2300.000000	102.258161
2299.000000	102.257542
2298.000000	102.256630
2297.000000	102.255560
2296.000000	102.254683
2295.000000	102.254171
2294.000000	102.253827
2293.000000	102.253266
2292.000000	102.252329
2291.000000	102.251140
2290.000000	102.249936
2289.000000	102.248918
2288.000000	102.248229
2287.000000	102.247825
2286.000000	102.247365
2285.000000	102.246490
2284.000000	102.245239
2283.000000	102.244063
2282.000000	102.243292
2281.000000	102.242761
2280.000000	102.242037
2279.000000	102.240880
2278.000000	102.239332
2277.000000	102.237574
2276.000000	102.235839
2275.000000	102.234353
2274.000000	102.233221
2273.000000	102.232414
2272.000000	102.231948
2271.000000	102.231857
2270.000000	102.231961
2269.000000	102.231826
2268.000000	102.231125
2267.000000	102.229973
2266.000000	102.228779
2265.000000	102.227856
2264.000000	102.227265
2263.000000	102.226901
2262.000000	102.226618
2261.000000	102.226291
2260.000000	102.225899
2259.000000	102.225576
2258.000000	102.225480
2257.000000	102.225609
2256.000000	102.225732
2255.000000	102.225553
2254.000000	102.224998
2253.000000	102.224307
2252.000000	102.223789
2251.000000	102.223478
2250.000000	102.223150
2249.000000	102.222666
2248.000000	102.222120
2247.000000	102.221543
2246.000000	102.220751
2245.000000	102.219676
2244.000000	102.218708
2243.000000	102.218388
2242.000000	102.218803
2241.000000	102.219473
2240.000000	102.219824
2239.000000	102.219691
2238.000000	102.219302
2237.000000	102.218981
2236.000000	102.218925
2235.000000	102.219144
2234.000000	102.219540
2233.000000	102.220025
2232.000000	102.220512
2231.000000	102.220787
2230.000000	102.220561
2229.000000	102.219762
2228.000000	102.218684
2227.000000	102.217792
2226.000000	102.217319
2225.000000	102.217198
2224.000000	102.217264
2223.000000	102.217379
2222.000000	102.217424
2221.000000	102.217295
2220.000000	102.217030
2219.000000	102.216807
2218.000000	102.216747
2217.000000	102.216810
2216.000000	102.216912
2215.000000	102.217039
2214.000000	102.217158
2213.000000	102.217138
2212.000000	102.216887
2211.000000	102.216480
2210.000000	102.216083
2209.000000	102.215793
2208.000000	102.215645
2207.000000	102.215675
2206.000000	102.215883
2205.000000	102.216167
2204.000000	102.216397
2203.000000	102.216511
2202.000000	102.216485
2201.000000	102.216309
2200.000000	102.216059
2199.000000	102.215939
2198.000000	102.216078
2197.000000	102.216317
2196.000000	102.216371
2195.000000	102.216183
2194.000000	102.215943
2193.000000	102.215781
2192.000000	102.215650
2191.000000	102.215537
2190.000000	102.215561
2189.000000	102.215759
2188.000000	102.215931
2187.000000	102.215832
2186.000000	102.215436
2185.000000	102.214960
2184.000000	102.214708
2183.000000	102.214934
2182.000000	102.215716
2181.000000	102.216882
2180.000000	102.218014
2179.000000	102.218694
2178.000000	102.218815
2177.000000	102.218643
2176.000000	102.218579
2175.000000	102.218788
2174.000000	102.219089
2173.000000	102.219234
2172.000000	102.219215
2171.000000	102.219263
2170.000000	102.219562
2169.000000	102.220013
2168.000000	102.220330
2167.000000	102.220352
2166.000000	102.220243
2165.000000	102.220376
2164.000000	102.221020
2163.000000	102.222108
2162.000000	102.223286
2161.000000	102.224233
2160.000000	102.224871
2159.000000	102.225193
2158.000000	102.225064
2157.000000	102.224417
2156.000000	102.223565
2155.000000	102.223066
2154.000000	102.223199
2153.000000	102.223771
2152.000000	102.224381
2151.000000	102.224748
2150.000000	102.224774
2149.000000	102.224582
2148.000000	102.224565
2147.000000	102.225127
2146.000000	102.226198
2145.000000	102.227173
2144.000000	102.227514
2143.000000	102.227240
2142.000000	102.226625
2141.000000	102.225703
2140.000000	102.224425
2139.000000	102.223192
2138.000000	102.222765
2137.000000	102.223531
2136.000000	102.225107
2135.000000	102.226640
2134.000000	102.227444
2133.000000	102.227333
2132.000000	102.226622
2131.000000	102.225948
2130.000000	102.225863
2129.000000	102.226534
2128.000000	102.227835
2127.000000	102.229572
2126.000000	102.231443
2125.000000	102.232969
2124.000000	102.233844
2123.000000	102.234300
2122.000000	102.234821
2121.000000	102.235432
2120.000000	102.235588
2119.000000	102.234858
2118.000000	102.233466
2117.000000	102.232118
2116.000000	102.231510
2115.000000	102.232040
2114.000000	102.233729
2113.000000	102.236180
2112.000000	102.238730
2111.000000	102.240829
2110.000000	102.242223
2109.000000	102.242775
2108.000000	102.242402
2107.000000	102.241301
2106.000000	102.239966
2105.000000	102.238763
2104.000000	102.237694
2103.000000	102.236817
2102.000000	102.236676
2101.000000	102.237831
2100.000000	102.239936
2099.000000	102.241722
2098.000000	102.242215
2097.000000	102.241732
2096.000000	102.241405
2095.000000	102.241857
2094.000000	102.242650
2093.000000	102.243176
2092.000000	102.243738
2091.000000	102.245193
2090.000000	102.247544
2089.000000	102.249534
2088.000000	102.250089
2087.000000	102.249740
2086.000000	102.250023
2085.000000	102.251539
2084.000000	102.253246
2083.000000	102.253903
2082.000000	102.253609
2081.000000	102.253462
2080.000000	102.254133
2079.000000	102.255297
2078.000000	102.256277
2077.000000	102.256676
2076.000000	102.256484
2075.000000	102.256025
2074.000000	102.255818
2073.000000	102.256110
2072.000000	102.256563
2071.000000	102.256853
2070.000000	102.257444
2069.000000	102.259139
2068.000000	102.261794
2067.000000	102.264097
2066.000000	102.264920
2065.000000	102.264296
2064.000000	102.262912
2063.000000	102.261141
2062.000000	102.258933
2061.000000	102.256372
2060.000000	102.253878
2059.000000	102.252006
2058.000000	102.251273
2057.000000	102.251936
2056.000000	102.253632
2055.000000	102.255372
2054.000000	102.256189
2053.000000	102.255718
2052.000000	102.254074
2051.000000	102.251572
2050.000000	102.248833
2049.000000	102.246736
2048.000000	102.245786
2047.000000	102.245702
2046.000000	102.245793
2045.000000	102.245644
2044.000000	102.245247
2043.000000	102.244627
2042.000000	102.243720
2041.000000	102.242589
2040.000000	102.241420
2039.000000	102.240232
2038.000000	102.238840
2037.000000	102.237201
2036.000000	102.235598
2035.000000	102.234358
2034.000000	102.233508
2033.000000	102.232797
2032.000000	102.231944
2031.000000	102.230843
2030.000000	102.229584
2029.000000	102.228328
2028.000000	102.227173
2027.000000	102.226076
2026.000000	102.224921
2025.000000	102.223668
2024.000000	102.222383
2023.000000	102.221143
2022.000000	102.219978
2021.000000	102.218874
2020.000000	102.217807
2019.000000	102.216753
2018.000000	102.215692
2017.000000	102.214623
2016.000000	102.213555
2015.000000	102.212506
2014.000000	102.211500
2013.000000	102.210544
2012.000000	102.209608
2011.000000	102.208635
2010.000000	102.207592
2009.000000	102.206531
2008.000000	102.205571
2007.000000	102.204773
2006.000000	102.204052
2005.000000	102.203262
2004.000000	102.202368
2003.000000	102.201461
2002.000000	102.200646
2001.000000	102.199966
2000.000000	102.199421
1999.000000	102.198986
1998.000000	102.198620
1997.000000	102.198263
1996.000000	102.197835
1995.000000	102.197262
1994.000000	102.196559
1993.000000	102.195904
1992.000000	102.195511
1991.000000	102.195408
1990.000000	102.195378
1989.000000	102.195201
1988.000000	102.194896
1987.000000	102.194652
1986.000000	102.194601
1985.000000	102.194715
1984.000000	102.194880
1983.000000	102.194956
1982.000000	102.194787
1981.000000	102.194292
1980.000000	102.193583
1979.000000	102.192935
1978.000000	102.192657
1977.000000	102.192891
1976.000000	102.193471
1975.000000	102.193972
1974.000000	102.194090
1973.000000	102.193913
1972.000000	102.193677
1971.000000	102.193349
1970.000000	102.192725
1969.000000	102.191886
1968.000000	102.191241
1967.000000	102.191065
1966.000000	102.191242
1965.000000	102.191525
1964.000000	102.191769
1963.000000	102.191858
1962.000000	102.191665
1961.000000	102.191325
1960.000000	102.191270
1959.000000	102.191811
1958.000000	102.192824
1957.000000	102.193945
1956.000000	102.194855
1955.000000	102.195250
1954.000000	102.194841
1953.000000	102.193743
1952.000000	102.192702
1951.000000	102.192609
1950.000000	102.193515
1949.000000	102.194425
1948.000000	102.194149
1947.000000	102.192119
1946.000000	102.188617
1945.000000	102.184642
1944.000000	102.181427
1943.000000	102.179759
1942.000000	102.179592
1941.000000	102.180280
1940.000000	102.181178
1939.000000	102.181970
1938.000000	102.182443
1937.000000	102.182416
1936.000000	102.181887
1935.000000	102.180902
1934.000000	102.179305
1933.000000	102.176875
1932.000000	102.173878
1931.000000	102.171224
1930.000000	102.169621
1929.000000	102.169025
1928.000000	102.168864
1927.000000	102.168365
1926.000000	102.166910
1925.000000	102.164414
1924.000000	102.161893
1923.000000	102.160967
1922.000000	102.162199
1921.000000	102.164282
1920.000000	102.165242
1919.000000	102.163764
1918.000000	102.159785
1917.000000	102.154627
1916.000000	102.149827
1915.000000	102.145632
1914.000000	102.141540
1913.000000	102.137638
1912.000000	102.134659
1911.000000	102.132592
1910.000000	102.130037
1909.000000	102.126143
1908.000000	102.122209
1907.000000	102.119981
1906.000000	102.119369
1905.000000	102.118779
1904.000000	102.117460
1903.000000	102.115704
1902.000000	102.113189
1901.000000	102.109373
1900.000000	102.105077
1899.000000	102.101858
1898.000000	102.099984
1897.000000	102.098081
1896.000000	102.095253
1895.000000	102.092141
1894.000000	102.089439
1893.000000	102.087037
1892.000000	102.084892
1891.000000	102.083103
1890.000000	102.081013
1889.000000	102.077692
1888.000000	102.073370
1887.000000	102.069215
1886.000000	102.066252
1885.000000	102.064997
1884.000000	102.065408
1883.000000	102.066313
1882.000000	102.065574
1881.000000	102.062690
1880.000000	102.060214
1879.000000	102.060822
1878.000000	102.063826
1877.000000	102.065715
1876.000000	102.064447
1875.000000	102.061877
1874.000000	102.061059
1873.000000	102.062825
1872.000000	102.065796
1871.000000	102.068063
1870.000000	102.068019
1869.000000	102.065591
1868.000000	102.063681
1867.000000	102.064789
1866.000000	102.067409
1865.000000	102.068892
1864.000000	102.069063
1863.000000	102.069634
1862.000000	102.071292
1861.000000	102.072758
1860.000000	102.072832
1859.000000	102.071970
1858.000000	102.071497
1857.000000	102.072712
1856.000000	102.076765
1855.000000	102.083581
1854.000000	102.090937
1853.000000	102.096206
1852.000000	102.099091
1851.000000	102.101072
1850.000000	102.103303
1849.000000	102.105613
1848.000000	102.107652
1847.000000	102.109880
1846.000000	102.112966
1845.000000	102.116645
1844.000000	102.119989
1843.000000	102.122632
1842.000000	102.123999
1841.000000	102.123820
1840.000000	102.122912
1839.000000	102.122365
1838.000000	102.122593
1837.000000	102.123231
1836.000000	102.124225
1835.000000	102.125952
1834.000000	102.128442
1833.000000	102.131278
1832.000000	102.133663
1831.000000	102.134267
1830.000000	102.132414
1829.000000	102.129404
1828.000000	102.127176
1827.000000	102.126768
1826.000000	102.127970
1825.000000	102.129073
1824.000000	102.128675
1823.000000	102.127464
1822.000000	102.126933
1821.000000	102.127548
1820.000000	102.128793
1819.000000	102.130403
1818.000000	102.132187
1817.000000	102.133073
1816.000000	102.132346
1815.000000	102.131026
1814.000000	102.130774
1813.000000	102.131982
1812.000000	102.133551
1811.000000	102.134523
1810.000000	102.134375
1809.000000	102.132703
1808.000000	102.130443
1807.000000	102.129482
1806.000000	102.130241
1805.000000	102.131197
1804.000000	102.131168
1803.000000	102.130921
1802.000000	102.131839
1801.000000	102.134021
1800.000000	102.136429
1799.000000	102.138736
1798.000000	102.140849
1797.000000	102.142014
1796.000000	102.141848
1795.000000	102.141305
1794.000000	102.141686
1793.000000	102.142749
1792.000000	102.143227
1791.000000	102.143551
1790.000000	102.144047
1789.000000	102.143835
1788.000000	102.142898
1787.000000	102.142460
1786.000000	102.143560
1785.000000	102.146214
1784.000000	102.149938
1783.000000	102.153938
1782.000000	102.157064
1781.000000	102.158495
1780.000000	102.158216
1779.000000	102.157800
1778.000000	102.158891
1777.000000	102.161715
1776.000000	102.164940
1775.000000	102.167188
1774.000000	102.169053
1773.000000	102.171848
1772.000000	102.174930
1771.000000	102.177143
1770.000000	102.178289
1769.000000	102.178832
1768.000000	102.179659
1767.000000	102.181541
1766.000000	102.184753
1765.000000	102.189269
1764.000000	102.194717
1763.000000	102.199642
1762.000000	102.201996
1761.000000	102.201651
1760.000000	102.200424
1759.000000	102.200466
1758.000000	102.202292
1757.000000	102.204424
1756.000000	102.204545
1755.000000	102.202141
1754.000000	102.199487
1753.000000	102.199516
1752.000000	102.202729
1751.000000	102.206132
1750.000000	102.206806
1749.000000	102.204557
1748.000000	102.200826
1747.000000	102.196999
1746.000000	102.194216
1745.000000	102.192930
1744.000000	102.192411
1743.000000	102.191984
1742.000000	102.191640
1741.000000	102.191239
1740.000000	102.190361
1739.000000	102.189668
1738.000000	102.190035
1737.000000	102.190911
1736.000000	102.191556
1735.000000	102.191064
1734.000000	102.188338
1733.000000	102.186000
1732.000000	102.185770
1731.000000	102.186246
1730.000000	102.186332
1729.000000	102.185990
1728.000000	102.185367
1727.000000	102.184554
1726.000000	102.183981
1725.000000	102.183904
1724.000000	102.183921
1723.000000	102.183618
1722.000000	102.182816
1721.000000	102.181471
1720.000000	102.179756
1719.000000	102.178113
1718.000000	102.176918
1717.000000	102.176057
1716.000000	102.175259
1715.000000	102.174350
1714.000000	102.173160
1713.000000	102.171669
1712.000000	102.170099
1711.000000	102.168631
1710.000000	102.167280
1709.000000	102.165987
1708.000000	102.164715
1707.000000	102.163457
1706.000000	102.162184
1705.000000	102.160855
1704.000000	102.159502
1703.000000	102.158182
1702.000000	102.156945
1701.000000	102.155574
1700.000000	102.153747
1699.000000	102.151936
1698.000000	102.150471
1697.000000	102.149100
1696.000000	102.147535
1695.000000	102.145886
1694.000000	102.144348
1693.000000	102.142753
1692.000000	102.141054
1691.000000	102.139403
1690.000000	102.137693
1689.000000	102.135556
1688.000000	102.132901
1687.000000	102.130240
1686.000000	102.128454
1685.000000	102.126939
1684.000000	102.123768
1683.000000	102.120471
1682.000000	102.118310
1681.000000	102.116801
1680.000000	102.115472
1679.000000	102.113876
1678.000000	102.111746
1677.000000	102.109382
1676.000000	102.107150
1675.000000	102.105117
1674.000000	102.103899
1673.000000	102.103890
1672.000000	102.104476
1671.000000	102.104542
1670.000000	102.102671
1669.000000	102.099678
1668.000000	102.098141
1667.000000	102.098210
1666.000000	102.098529
1665.000000	102.098120
1664.000000	102.096467
1663.000000	102.093241
1662.000000	102.088936
1661.000000	102.084986
1660.000000	102.081832
1659.000000	102.078987
1658.000000	102.076029
1657.000000	102.072524
1656.000000	102.068673
1655.000000	102.066647
1654.000000	102.067388
1653.000000	102.066502
1652.000000	102.068016
1651.000000	102.071686
1650.000000	102.074394
1649.000000	102.075128
1648.000000	102.075269
1647.000000	102.075769
1646.000000	102.076965
1645.000000	102.077452
1644.000000	102.075994
1643.000000	102.073785
1642.000000	102.072389
1641.000000	102.072580
1640.000000	102.073618
1639.000000	102.074138
1638.000000	102.073930
1637.000000	102.073652
1636.000000	102.072937
1635.000000	102.071483
1634.000000	102.070567
1633.000000	102.069861
1632.000000	102.069415
1631.000000	102.069754
1630.000000	102.071358
1629.000000	102.074641
1628.000000	102.079578
1627.000000	102.084429
1626.000000	102.086961
1625.000000	102.087347
1624.000000	102.087606
1623.000000	102.089069
1622.000000	102.091281
1621.000000	102.093224
1620.000000	102.094319
1619.000000	102.094770
1618.000000	102.095283
1617.000000	102.096675
1616.000000	102.100314
1615.000000	102.105343
1614.000000	102.108689
1613.000000	102.109537
1612.000000	102.109589
1611.000000	102.110534
1610.000000	102.112472
1609.000000	102.115155
1608.000000	102.118529
1607.000000	102.121723
1606.000000	102.123585
1605.000000	102.124632
1604.000000	102.126393
1603.000000	102.129451
1602.000000	102.133061
1601.000000	102.136434
1600.000000	102.139602
1599.000000	102.142771
1598.000000	102.145737
1597.000000	102.147978
1596.000000	102.149135
1595.000000	102.149383
1594.000000	102.149369
1593.000000	102.149927
1592.000000	102.151498
1591.000000	102.153810
1590.000000	102.156212
1589.000000	102.158367
1588.000000	102.160316
1587.000000	102.162081
1586.000000	102.163684
1585.000000	102.165570
1584.000000	102.168214
1583.000000	102.171156
1582.000000	102.173498
1581.000000	102.174721
1580.000000	102.174655
1579.000000	102.173421
1578.000000	102.171946
1577.000000	102.171471
1576.000000	102.172159
1575.000000	102.173109
1574.000000	102.173564
1573.000000	102.173588
1572.000000	102.173535
1571.000000	102.173685
1570.000000	102.174136
1569.000000	102.175359
1568.000000	102.177225
1567.000000	102.178478
1566.000000	102.178602
1565.000000	102.178130
1564.000000	102.177738
1563.000000	102.177328
1562.000000	102.176744
1561.000000	102.176750
1560.000000	102.177823
1559.000000	102.177616
1558.000000	102.176319
1557.000000	102.176077
1556.000000	102.176364
1555.000000	102.176480
1554.000000	102.176166
1553.000000	102.175570
1552.000000	102.174769
1551.000000	102.173774
1550.000000	102.172726
1549.000000	102.171910
1548.000000	102.171510
1547.000000	102.171486
1546.000000	102.171755
1545.000000	102.172119
1544.000000	102.172565
1543.000000	102.173465
1542.000000	102.175017
1541.000000	102.175932
1540.000000	102.174406
1539.000000	102.171372
1538.000000	102.168759
1537.000000	102.166590
1536.000000	102.164608
1535.000000	102.163187
1534.000000	102.162687
1533.000000	102.162730
1532.000000	102.162658
1531.000000	102.162170
1530.000000	102.161368
1529.000000	102.160235
1528.000000	102.158755
1527.000000	102.157483
1526.000000	102.157341
1525.000000	102.158448
1524.000000	102.160063
1523.000000	102.161605
1522.000000	102.162413
1521.000000	102.161963
1520.000000	102.161166
1519.000000	102.160737
1518.000000	102.160722
1517.000000	102.160905
1516.000000	102.161220
1515.000000	102.161665
1514.000000	102.162053
1513.000000	102.162103
1512.000000	102.161275
1511.000000	102.159643
1510.000000	102.158133
1509.000000	102.157894
1508.000000	102.159490
1507.000000	102.162574
1506.000000	102.166439
1505.000000	102.169290
1504.000000	102.170324
1503.000000	102.170370
1502.000000	102.170091
1501.000000	102.169929
1500.000000	102.169824
1499.000000	102.169652
1498.000000	102.169719
1497.000000	102.169647
1496.000000	102.168781
1495.000000	102.168197
1494.000000	102.168968
1493.000000	102.170819
1492.000000	102.172990
1491.000000	102.174777
1490.000000	102.175822
1489.000000	102.176499
1488.000000	102.177543
1487.000000	102.179685
1486.000000	102.181779
1485.000000	102.181974
1484.000000	102.180407
1483.000000	102.178963
1482.000000	102.179624
1481.000000	102.182175
1480.000000	102.185063
1479.000000	102.187937
1478.000000	102.191449
1477.000000	102.194605
1476.000000	102.195489
1475.000000	102.194990
1474.000000	102.195785
1473.000000	102.198032
1472.000000	102.198831
1471.000000	102.197688
1470.000000	102.195630
1469.000000	102.193122
1468.000000	102.190120
1467.000000	102.187181
1466.000000	102.185185
1465.000000	102.184010
1464.000000	102.182588
1463.000000	102.180576
1462.000000	102.178878
1461.000000	102.178165
1460.000000	102.178480
1459.000000	102.179736
1458.000000	102.182256
1457.000000	102.185038
1456.000000	102.187049
1455.000000	102.187612
1454.000000	102.187631
1453.000000	102.188087
1452.000000	102.188724
1451.000000	102.189018
1450.000000	102.188541
1449.000000	102.185873
1448.000000	102.179265
1447.000000	102.170056
1446.000000	102.161652
1445.000000	102.155702
1444.000000	102.151564
1443.000000	102.149228
1442.000000	102.149119
1441.000000	102.149732
1440.000000	102.148284
1439.000000	102.145042
1438.000000	102.144533
1437.000000	102.148389
1436.000000	102.151728
1435.000000	102.151092
1434.000000	102.149470
1433.000000	102.150287
1432.000000	102.153192
1431.000000	102.154812
1430.000000	102.154022
1429.000000	102.153049
1428.000000	102.152835
1427.000000	102.152157
1426.000000	102.151185
1425.000000	102.152694
1424.000000	102.157038
1423.000000	102.160834
1422.000000	102.162427
1421.000000	102.164316
1420.000000	102.167844
1419.000000	102.169770
1418.000000	102.170647
1417.000000	102.173044
1416.000000	102.176162
1415.000000	102.178930
1414.000000	102.181202
1413.000000	102.183365
1412.000000	102.185823
1411.000000	102.189281
1410.000000	102.194971
1409.000000	102.202797
1408.000000	102.210816
1407.000000	102.217194
1406.000000	102.221368
1405.000000	102.224522
1404.000000	102.227441
1403.000000	102.229820
1402.000000	102.231803
1401.000000	102.233713
1400.000000	102.235061
1399.000000	102.235628
1398.000000	102.237812
1397.000000	102.243793
1396.000000	102.252311
1395.000000	102.259270
1394.000000	102.262163
1393.000000	102.262491
1392.000000	102.261726
1391.000000	102.260309
1390.000000	102.258435
1389.000000	102.256253
1388.000000	102.253974
1387.000000	102.252681
1386.000000	102.253823
1385.000000	102.257382
1384.000000	102.261731
1383.000000	102.264967
1382.000000	102.266019
1381.000000	102.265098
1380.000000	102.263534
1379.000000	102.262462
1378.000000	102.262200
1377.000000	102.262799
1376.000000	102.264177
1375.000000	102.265264
1374.000000	102.264483
1373.000000	102.261609
1372.000000	102.257758
1371.000000	102.254669
1370.000000	102.253625
1369.000000	102.255061
1368.000000	102.258092
1367.000000	102.261167
1366.000000	102.263407
1365.000000	102.264774
1364.000000	102.265140
1363.000000	102.264063
1362.000000	102.261227
1361.000000	102.256888
1360.000000	102.252200
1359.000000	102.248749
1358.000000	102.247073
1357.000000	102.246245
1356.000000	102.245220
1355.000000	102.244551
1354.000000	102.245904
1353.000000	102.249605
1352.000000	102.253927
1351.000000	102.256962
1350.000000	102.257954
1349.000000	102.257563
1348.000000	102.256439
1347.000000	102.254734
1346.000000	102.252832
1345.000000	102.251760
1344.000000	102.252333
1343.000000	102.254493
1342.000000	102.257604
1341.000000	102.260940
1340.000000	102.263653
1339.000000	102.264802
1338.000000	102.263965
1337.000000	102.261658
1336.000000	102.259018
1335.000000	102.257337
1334.000000	102.257598
1333.000000	102.259789
1332.000000	102.262507
1331.000000	102.263880
1330.000000	102.263461
1329.000000	102.262817
1328.000000	102.263557
1327.000000	102.265140
1326.000000	102.265391
1325.000000	102.263234
1324.000000	102.259810
1323.000000	102.257367
1322.000000	102.257504
1321.000000	102.260154
1320.000000	102.263571
1319.000000	102.265407
1318.000000	102.264449
1317.000000	102.261351
1316.000000	102.257761
1315.000000	102.255265
1314.000000	102.255105
1313.000000	102.257809
1312.000000	102.262310
1311.000000	102.266056
1310.000000	102.267014
1309.000000	102.265438
1308.000000	102.263352
1307.000000	102.262433
1306.000000	102.262624
1305.000000	102.263037
1304.000000	102.263129
1303.000000	102.262828
1302.000000	102.262048
1301.000000	102.260620
1300.000000	102.258667
1299.000000	102.256943
1298.000000	102.256685
1297.000000	102.258843
1296.000000	102.263076
1295.000000	102.267341
1294.000000	102.269032
1293.000000	102.266946
1292.000000	102.262247
1291.000000	102.257590
1290.000000	102.255098
1289.000000	102.255017
1288.000000	102.256163
1287.000000	102.257215
1286.000000	102.257353
1285.000000	102.255956
1284.000000	102.252617
1283.000000	102.248175
1282.000000	102.245221
1281.000000	102.246238
1280.000000	102.250735
1279.000000	102.254988
1278.000000	102.255898
1277.000000	102.254465
1276.000000	102.254031
1275.000000	102.255349
1274.000000	102.255479
1273.000000	102.252237
1272.000000	102.247722
1271.000000	102.245778
1270.000000	102.247146
1269.000000	102.249267
1268.000000	102.250266
1267.000000	102.250767
1266.000000	102.251767
1265.000000	102.252690
1264.000000	102.252385
1263.000000	102.250752
1262.000000	102.248479
1261.000000	102.246185
1260.000000	102.244580
1259.000000	102.244371
1258.000000	102.245224
1257.000000	102.245224
1256.000000	102.242056
1255.000000	102.234664
1254.000000	102.223952
1253.000000	102.212523
1252.000000	102.203609
1251.000000	102.198717
1250.000000	102.195425
1249.000000	102.188598
1248.000000	102.175043
1247.000000	102.156812
1246.000000	102.139592
1245.000000	102.127956
1244.000000	102.122276
1243.000000	102.119015
1242.000000	102.113120
1241.000000	102.101223
1240.000000	102.083966
1239.000000	102.065117
1238.000000	102.047781
1237.000000	102.032100
1236.000000	102.017226
1235.000000	102.003640
1234.000000	101.991240
1233.000000	101.976091
1232.000000	101.952383
1231.000000	101.918933
1230.000000	101.882159
1229.000000	101.850855
1228.000000	101.828066
1227.000000	101.808589
1226.000000	101.783900
1225.000000	101.748998
1224.000000	101.704991
1223.000000	101.656199
1222.000000	101.605361
1221.000000	101.551557
1220.000000	101.492025
1219.000000	101.425184
1218.000000	101.352191
1217.000000	101.276431
1216.000000	101.201250
1215.000000	101.126875
1214.000000	101.049671
1213.000000	100.966033
1212.000000	100.877143
1211.000000	100.788330
1210.000000	100.703552
1209.000000	100.622542
1208.000000	100.543312
1207.000000	100.464523
1206.000000	100.384997
1205.000000	100.304105
1204.000000	100.223504
1203.000000	100.145699
1202.000000	100.070533
1201.000000	99.996062
1200.000000	99.922704
1199.000000	99.852423
1198.000000	99.783804
1197.000000	99.712881
1196.000000	99.639608
1195.000000	99.568065
1194.000000	99.498491
1193.000000	99.424624
1192.000000	99.341999
1191.000000	99.254556
1190.000000	99.169869
1189.000000	99.091141
1188.000000	99.016368
1187.000000	98.941623
1186.000000	98.862586
1185.000000	98.776490
1184.000000	98.685250
1183.000000	98.593660
1182.000000	98.502930
1181.000000	98.409756
1180.000000	98.312905
1179.000000	98.215316
1178.000000	98.117705
1177.000000	98.016256
1176.000000	97.909891
1175.000000	97.803647
1174.000000	97.700374
1173.000000	97.594773
1172.000000	97.481022
1171.000000	97.361645
1170.000000	97.243624
1169.000000	97.130063
1168.000000	97.021306
1167.000000	96.920833
1166.000000	96.834856
1165.000000	96.768910
1164.000000	96.728797
1163.000000	96.720874
1162.000000	96.746268
1161.000000	96.796580
1160.000000	96.857667
1159.000000	96.914890
1158.000000	96.953863
1157.000000	96.962115
1156.000000	96.935079
1155.000000	96.878884
1154.000000	96.804479
1153.000000	96.720109
1152.000000	96.630573
1151.000000	96.539648
1150.000000	96.449165
1149.000000	96.358034
1148.000000	96.265637
1147.000000	96.174628
1146.000000	96.088248
1145.000000	96.006791
1144.000000	95.928197
1143.000000	95.849795
1142.000000	95.768669
1141.000000	95.683123
1140.000000	95.594279
1139.000000	95.503576
1138.000000	95.409641
1137.000000	95.311667
1136.000000	95.214250
1135.000000	95.122829
1134.000000	95.035078
1133.000000	94.943768
1132.000000	94.847763
1131.000000	94.752356
1130.000000	94.658590
1129.000000	94.561132
1128.000000	94.458390
1127.000000	94.355924
1126.000000	94.257355
1125.000000	94.160185
1124.000000	94.063120
1123.000000	93.968861
1122.000000	93.876760
1121.000000	93.781449
1120.000000	93.681993
1119.000000	93.583711
1118.000000	93.487945
1117.000000	93.389651
1116.000000	93.288410
1115.000000	93.191590
1114.000000	93.102277
1113.000000	93.014329
1112.000000	92.924291
1111.000000	92.837630
1110.000000	92.757684
1109.000000	92.679027
1108.000000	92.597445
1107.000000	92.517291
1106.000000	92.443186
1105.000000	92.373241
1104.000000	92.305589
1103.000000	92.242791
1102.000000	92.184639
1101.000000	92.125261
1100.000000	92.061739
1099.000000	91.998396
1098.000000	91.937557
1097.000000	91.875403
1096.000000	91.810421
1095.000000	91.747494
1094.000000	91.689893
1093.000000	91.635338
1092.000000	91.582747
1091.000000	91.534357
1090.000000	91.488990
1089.000000	91.442373
1088.000000	91.395944
1087.000000	91.355781
1086.000000	91.321539
1085.000000	91.286835
1084.000000	91.251617
1083.000000	91.222628
1082.000000	91.200105
1081.000000	91.176178
1080.000000	91.148310
1079.000000	91.121574
1078.000000	91.095202
1077.000000	91.060364
1076.000000	91.015000
1075.000000	90.967456
1074.000000	90.920348
1073.000000	90.863044
1072.000000	90.785611
1071.000000	90.688963
1070.000000	90.576437
1069.000000	90.445676
1068.000000	90.294067
1067.000000	90.123384
1066.000000	89.935631
1065.000000	89.733902
1064.000000	89.530124
1063.000000	89.340964
1062.000000	89.172373
1061.000000	89.018649
1060.000000	88.877907
1059.000000	88.754824
1058.000000	88.646022
1057.000000	88.537992
1056.000000	88.423627
1055.000000	88.306678
1054.000000	88.186148
1053.000000	88.051477
1052.000000	87.898960
1051.000000	87.737564
1050.000000	87.571195
1049.000000	87.391222
1048.000000	87.194020
1047.000000	86.988536
1046.000000	86.779711
1045.000000	86.561523
1044.000000	86.332815
1043.000000	86.104201
1042.000000	85.882772
1041.000000	85.664212
1040.000000	85.446492
1039.000000	85.237356
1038.000000	85.042038
1037.000000	84.857593
1036.000000	84.684884
1035.000000	84.531289
1034.000000	84.395927
1033.000000	84.267642
1032.000000	84.143867
1031.000000	84.036255
1030.000000	83.951201
1029.000000	83.879539
1028.000000	83.811497
1027.000000	83.747676
1026.000000	83.689413
1025.000000	83.632408
1024.000000	83.575562
1023.000000	83.523041
1022.000000	83.473293
1021.000000	83.419523
1020.000000	83.364324
1019.000000	83.319508
1018.000000	83.287866
1017.000000	83.258655
1016.000000	83.223380
1015.000000	83.182375
1014.000000	83.135241
1013.000000	83.080634
1012.000000	83.026785
1011.000000	82.985978
1010.000000	82.956898
1009.000000	82.927923
1008.000000	82.897927
1007.000000	82.876331
1006.000000	82.862666
1005.000000	82.845874
1004.000000	82.825748
1003.000000	82.815133
1002.000000	82.817810
1001.000000	82.823675
1000.000000	82.829270
999.000000	82.843254
998.000000	82.866984
997.000000	82.889497
996.000000	82.907667
995.000000	82.932891
994.000000	82.971343
993.000000	83.014760
992.000000	83.056661
991.000000	83.101508
990.000000	83.152687
989.000000	83.207625
988.000000	83.269497
987.000000	83.347483
986.000000	83.440952
985.000000	83.539762
984.000000	83.644322
983.000000	83.768197
982.000000	83.916002
981.000000	84.075706
980.000000	84.238323
979.000000	84.409200
978.000000	84.593942
977.000000	84.788754
976.000000	84.990717
975.000000	85.203304
974.000000	85.425939
973.000000	85.651143
972.000000	85.876763
971.000000	86.108555
970.000000	86.347037
969.000000	86.584638
968.000000	86.819224
967.000000	87.057294
966.000000	87.299982
965.000000	87.538557
964.000000	87.767753
963.000000	87.991720
962.000000	88.213211
961.000000	88.428441
960.000000	88.636323
959.000000	88.841583
958.000000	89.044621
957.000000	89.238408
956.000000	89.419219
955.000000	89.591296
954.000000	89.758039
953.000000	89.917218
952.000000	90.067298
951.000000	90.210015
950.000000	90.345021
949.000000	90.470317
948.000000	90.589175
947.000000	90.708121
946.000000	90.827168
945.000000	90.940253
944.000000	91.045270
943.000000	91.145121
942.000000	91.239949
941.000000	91.328060
940.000000	91.413427
939.000000	91.501586
938.000000	91.588940
937.000000	91.667737
936.000000	91.741200
935.000000	91.821428
934.000000	91.911764
933.000000	92.003888
932.000000	92.093573
931.000000	92.186084
930.000000	92.283356
929.000000	92.378461
928.000000	92.466878
927.000000	92.552619
926.000000	92.639695
925.000000	92.727223
924.000000	92.815694
923.000000	92.908105
922.000000	93.001894
921.000000	93.088820
920.000000	93.165133
919.000000	93.233700
918.000000	93.296087
917.000000	93.352910
916.000000	93.412444
915.000000	93.486636
914.000000	93.575939
913.000000	93.669266
912.000000	93.761972
911.000000	93.862790
910.000000	93.979499
909.000000	94.109141
908.000000	94.246779
907.000000	94.393817
906.000000	94.553108
905.000000	94.724611
904.000000	94.908937
903.000000	95.105960
902.000000	95.307433
901.000000	95.501189
900.000000	95.686305
899.000000	95.874577
898.000000	96.072579
897.000000	96.271243
896.000000	96.457714
895.000000	96.630187
894.000000	96.796332
893.000000	96.962898
892.000000	97.130840
891.000000	97.296047
890.000000	97.451872
889.000000	97.594906
888.000000	97.729765
887.000000	97.864261
886.000000	97.999539
885.000000	98.129992
884.000000	98.252756
883.000000	98.370919
882.000000	98.486696
881.000000	98.597894
880.000000	98.702943
879.000000	98.804281
878.000000	98.905685
877.000000	99.010818
876.000000	99.123867
875.000000	99.245771
874.000000	99.370399
873.000000	99.490368
872.000000	99.605194
871.000000	99.717774
870.000000	99.825943
869.000000	99.925827
868.000000	100.021689
867.000000	100.123480
866.000000	100.234337
865.000000	100.347625
864.000000	100.455753
863.000000	100.554535
862.000000	100.640565
861.000000	100.713970
860.000000	100.784540
859.000000	100.865569
858.000000	100.958401
857.000000	101.050843
856.000000	101.133136
855.000000	101.207217
854.000000	101.277696
853.000000	101.342428
852.000000	101.397317
851.000000	101.443690
850.000000	101.484999
849.000000	101.520678
848.000000	101.548298
847.000000	101.568361
846.000000	101.582752
845.000000	101.591278
844.000000	101.593060
843.000000	101.588752
842.000000	101.578827
841.000000	101.562120
840.000000	101.537503
839.000000	101.504056
838.000000	101.458886
837.000000	101.399011
836.000000	101.326883
835.000000	101.250588
834.000000	101.178082
833.000000	101.115538
832.000000	101.070934
831.000000	101.051546
830.000000	101.055067
829.000000	101.070004
828.000000	101.087953
827.000000	101.108809
826.000000	101.131423
825.000000	101.148215
824.000000	101.154556
823.000000	101.155691
822.000000	101.158595
821.000000	101.163128
820.000000	101.164426
819.000000	101.156196
818.000000	101.128788
817.000000	101.072280
816.000000	100.985524
815.000000	100.875955
814.000000	100.746548
813.000000	100.588566
812.000000	100.390379
811.000000	100.145533
810.000000	99.846438
809.000000	99.478262
808.000000	99.029505
807.000000	98.507147
806.000000	97.935641
805.000000	97.344428
804.000000	96.762199
803.000000	96.217031
802.000000	95.732419
801.000000	95.325179
800.000000	95.010225
799.000000	94.799260
798.000000	94.690716
797.000000	94.670142
796.000000	94.722946
795.000000	94.835602
794.000000	94.984150
793.000000	95.138223
792.000000	95.282058
791.000000	95.417735
790.000000	95.541861
789.000000	95.632340
788.000000	95.665859
787.000000	95.637335
786.000000	95.554009
785.000000	95.420741
784.000000	95.242496
783.000000	95.035573
782.000000	94.826006
781.000000	94.639223
780.000000	94.496822
779.000000	94.417126
778.000000	94.410686
777.000000	94.478036
776.000000	94.614434
775.000000	94.810659
774.000000	95.047793
773.000000	95.300389
772.000000	95.548549
771.000000	95.781031
770.000000	95.987166
769.000000	96.155805
768.000000	96.285073
767.000000	96.385138
766.000000	96.468155
765.000000	96.541642
764.000000	96.612139
763.000000	96.685360
762.000000	96.759058
761.000000	96.825164
760.000000	96.884010
759.000000	96.948831
758.000000	97.031948
757.000000	97.133675
756.000000	97.247739
755.000000	97.368196
754.000000	97.486290
753.000000	97.590206
752.000000	97.676054
751.000000	97.754088
750.000000	97.837989
749.000000	97.931542
748.000000	98.029626
747.000000	98.127349
746.000000	98.223744
745.000000	98.320969
744.000000	98.424550
743.000000	98.540957
742.000000	98.671043
741.000000	98.808315
740.000000	98.945440
739.000000	99.079355
738.000000	99.209672
737.000000	99.336900
736.000000	99.462972
735.000000	99.588125
734.000000	99.706166
733.000000	99.808144
732.000000	99.891265
731.000000	99.958713
730.000000	100.010739
729.000000	100.043614
728.000000	100.059448
727.000000	100.070321
726.000000	100.089194
725.000000	100.120774
724.000000	100.163104
723.000000	100.213184
722.000000	100.269704
721.000000	100.335255
720.000000	100.416074
719.000000	100.513235
718.000000	100.614114
717.000000	100.700687
716.000000	100.767605
715.000000	100.825145
714.000000	100.883214
713.000000	100.940045
712.000000	100.988802
711.000000	101.026535
710.000000	101.052386
709.000000	101.065174
708.000000	101.068077
707.000000	101.068328
706.000000	101.066133
705.000000	101.048373
704.000000	100.997976
703.000000	100.904983
702.000000	100.764545
701.000000	100.571563
700.000000	100.325409
699.000000	100.036858
698.000000	99.728076
697.000000	99.431525
696.000000	99.190366
695.000000	99.047992
694.000000	99.025036
693.000000	99.107363
692.000000	99.258201
691.000000	99.439460
690.000000	99.624644
689.000000	99.799937
688.000000	99.958644
687.000000	100.093011
686.000000	100.191544
685.000000	100.251746
684.000000	100.294408
683.000000	100.352082
682.000000	100.438564
681.000000	100.537653
680.000000	100.625071
679.000000	100.691929
678.000000	100.741780
677.000000	100.778778
676.000000	100.808546
675.000000	100.839120
674.000000	100.875635
673.000000	100.916273
672.000000	100.955960
671.000000	100.993444
670.000000	101.035096
669.000000	101.095657
668.000000	101.184825
667.000000	101.279049
666.000000	101.347624
665.000000	101.392061
664.000000	101.425741
663.000000	101.455414
662.000000	101.476445
661.000000	101.482742
660.000000	101.480299
659.000000	101.481344
658.000000	101.485219
657.000000	101.477676
656.000000	101.451358
655.000000	101.413149
654.000000	101.372083
653.000000	101.328235
652.000000	101.279065
651.000000	101.230982
650.000000	101.195524
649.000000	101.179361
648.000000	101.184983
647.000000	101.213575
646.000000	101.259792
645.000000	101.311882
644.000000	101.365784
643.000000	101.430179
642.000000	101.508400
641.000000	101.589136
640.000000	101.662220
639.000000	101.728136
638.000000	101.787323
637.000000	101.832391
636.000000	101.858952
635.000000	101.874748
634.000000	101.888272
633.000000	101.897113
632.000000	101.898947
631.000000	101.906112
630.000000	101.937864
629.000000	102.001453
628.000000	102.086954
627.000000	102.173332
626.000000	102.236588
625.000000	102.264597
624.000000	102.270422
623.000000	102.280759
622.000000	102.304756
621.000000	102.324658
620.000000	102.323667
619.000000	102.307967
618.000000	102.291236
617.000000	102.273278
616.000000	102.251836
615.000000	102.240223
614.000000	102.251154
613.000000	102.273627
612.000000	102.284142
611.000000	102.270812
610.000000	102.235821
609.000000	102.186155
608.000000	102.135907
607.000000	102.106277
606.000000	102.106460
605.000000	102.127187
604.000000	102.168215
603.000000	102.247887
602.000000	102.361511
601.000000	102.450047
600.000000	102.443555
599.000000	102.332535
598.000000	102.181709
597.000000	102.066518
596.000000	102.014715
595.000000	102.016830
594.000000	102.055548
593.000000	102.112747
592.000000	102.164659
591.000000	102.185965
590.000000	102.165343
589.000000	102.116652
588.000000	102.073790
587.000000	102.069556
586.000000	102.105760
585.000000	102.150118
584.000000	102.179002
583.000000	102.208310
582.000000	102.261706
581.000000	102.320773
580.000000	102.338319
579.000000	102.302102
578.000000	102.260409
577.000000	102.270911
576.000000	102.339226
575.000000	102.412588
574.000000	102.428446
573.000000	102.374590
572.000000	102.302213
571.000000	102.281264
570.000000	102.326767
569.000000	102.380521
568.000000	102.383550
567.000000	102.338694
566.000000	102.287591
565.000000	102.255104
564.000000	102.244659
563.000000	102.255726
562.000000	102.268765
561.000000	102.244114
560.000000	102.171627
559.000000	102.097270
558.000000	102.064662
557.000000	102.054667
556.000000	102.029122
555.000000	101.997611
554.000000	101.993651
553.000000	102.016242
552.000000	102.044559
551.000000	102.085352
550.000000	102.160498
