PE IR       SUBTECH     SPECTRUM    ASCII       PEDS        4.00        
   -1
BH1 8-1 4 5_1.asc
24/05/15
16:27:47.00
24/05/15
16:28:12.00
Administrator
?品 117 用? Administrator 日期 Wednesday, May 15 2024
550.000000
#HDR
-1
-1
#GR
cm-1
%T
1.0
0.0
4000.000000
-1.000000
3451
8
101.264237
85.703299
#DATA
4000.000000	100.968910
3999.000000	100.967816
3998.000000	100.967431
3997.000000	100.967611
3996.000000	100.967767
3995.000000	100.967025
3994.000000	100.964638
3993.000000	100.960658
3992.000000	100.956268
3991.000000	100.953062
3990.000000	100.951865
3989.000000	100.952135
3988.000000	100.952317
3987.000000	100.951156
3986.000000	100.948740
3985.000000	100.946316
3984.000000	100.945123
3983.000000	100.945224
3982.000000	100.945373
3981.000000	100.944160
3980.000000	100.941404
3979.000000	100.938355
3978.000000	100.936502
3977.000000	100.936191
3976.000000	100.936394
3975.000000	100.935774
3974.000000	100.933920
3973.000000	100.931573
3972.000000	100.929911
3971.000000	100.929669
3970.000000	100.930782
3969.000000	100.932439
3968.000000	100.933454
3967.000000	100.932903
3966.000000	100.930690
3965.000000	100.927468
3964.000000	100.923938
3963.000000	100.920240
3962.000000	100.916112
3961.000000	100.911596
3960.000000	100.907265
3959.000000	100.903601
3958.000000	100.900406
3957.000000	100.897181
3956.000000	100.894143
3955.000000	100.892469
3954.000000	100.893113
3953.000000	100.895461
3952.000000	100.897306
3951.000000	100.896524
3950.000000	100.892761
3949.000000	100.887585
3948.000000	100.883157
3947.000000	100.880503
3946.000000	100.879106
3945.000000	100.877844
3944.000000	100.876187
3943.000000	100.874502
3942.000000	100.873368
3941.000000	100.872902
3940.000000	100.872918
3939.000000	100.873501
3938.000000	100.874957
3937.000000	100.877165
3936.000000	100.879229
3935.000000	100.879815
3934.000000	100.877959
3933.000000	100.873652
3932.000000	100.867942
3931.000000	100.862501
3930.000000	100.858662
3929.000000	100.856913
3928.000000	100.857038
3927.000000	100.858348
3926.000000	100.859999
3925.000000	100.861119
3924.000000	100.861052
3923.000000	100.859578
3922.000000	100.857130
3921.000000	100.854645
3920.000000	100.852754
3919.000000	100.851314
3918.000000	100.849902
3917.000000	100.848605
3916.000000	100.847919
3915.000000	100.847936
3914.000000	100.848068
3913.000000	100.847619
3912.000000	100.846449
3911.000000	100.844966
3910.000000	100.843714
3909.000000	100.842845
3908.000000	100.842014
3907.000000	100.840798
3906.000000	100.839218
3905.000000	100.837638
3904.000000	100.836261
3903.000000	100.834875
3902.000000	100.833147
3901.000000	100.831097
3900.000000	100.829065
3899.000000	100.827331
3898.000000	100.825921
3897.000000	100.824737
3896.000000	100.823716
3895.000000	100.822800
3894.000000	100.821852
3893.000000	100.820775
3892.000000	100.819610
3891.000000	100.818435
3890.000000	100.817258
3889.000000	100.816042
3888.000000	100.814788
3887.000000	100.813528
3886.000000	100.812276
3885.000000	100.811024
3884.000000	100.809762
3883.000000	100.808488
3882.000000	100.807215
3881.000000	100.805971
3880.000000	100.804785
3879.000000	100.803660
3878.000000	100.802581
3877.000000	100.801527
3876.000000	100.800493
3875.000000	100.799485
3874.000000	100.798510
3873.000000	100.797567
3872.000000	100.796648
3871.000000	100.795745
3870.000000	100.794845
3869.000000	100.793926
3868.000000	100.792972
3867.000000	100.791984
3866.000000	100.790988
3865.000000	100.790016
3864.000000	100.789077
3863.000000	100.788157
3862.000000	100.787237
3861.000000	100.786311
3860.000000	100.785384
3859.000000	100.784457
3858.000000	100.783523
3857.000000	100.782567
3856.000000	100.781570
3855.000000	100.780519
3854.000000	100.779425
3853.000000	100.778322
3852.000000	100.777240
3851.000000	100.776186
3850.000000	100.775153
3849.000000	100.774140
3848.000000	100.773150
3847.000000	100.772183
3846.000000	100.771240
3845.000000	100.770315
3844.000000	100.769398
3843.000000	100.768474
3842.000000	100.767529
3841.000000	100.766554
3840.000000	100.765549
3839.000000	100.764510
3838.000000	100.763421
3837.000000	100.762263
3836.000000	100.761038
3835.000000	100.759770
3834.000000	100.758481
3833.000000	100.757180
3832.000000	100.755868
3831.000000	100.754553
3830.000000	100.753243
3829.000000	100.751936
3828.000000	100.750625
3827.000000	100.749317
3826.000000	100.748025
3825.000000	100.746729
3824.000000	100.745368
3823.000000	100.743889
3822.000000	100.742321
3821.000000	100.740835
3820.000000	100.739532
3819.000000	100.738340
3818.000000	100.737122
3817.000000	100.735885
3816.000000	100.734695
3815.000000	100.733558
3814.000000	100.732417
3813.000000	100.731251
3812.000000	100.730150
3811.000000	100.729164
3810.000000	100.728178
3809.000000	100.727014
3808.000000	100.725657
3807.000000	100.724226
3806.000000	100.722853
3805.000000	100.721516
3804.000000	100.720139
3803.000000	100.718710
3802.000000	100.717281
3801.000000	100.715904
3800.000000	100.714572
3799.000000	100.713223
3798.000000	100.711862
3797.000000	100.710562
3796.000000	100.709356
3795.000000	100.708215
3794.000000	100.707081
3793.000000	100.705914
3792.000000	100.704716
3791.000000	100.703531
3790.000000	100.702388
3789.000000	100.701287
3788.000000	100.700251
3787.000000	100.699343
3786.000000	100.698610
3785.000000	100.698024
3784.000000	100.697465
3783.000000	100.696758
3782.000000	100.695745
3781.000000	100.694370
3780.000000	100.692745
3779.000000	100.691100
3778.000000	100.689636
3777.000000	100.688423
3776.000000	100.687466
3775.000000	100.686720
3774.000000	100.685922
3773.000000	100.684648
3772.000000	100.682693
3771.000000	100.680446
3770.000000	100.678642
3769.000000	100.677501
3768.000000	100.676400
3767.000000	100.674690
3766.000000	100.672514
3765.000000	100.670467
3764.000000	100.668717
3763.000000	100.666881
3762.000000	100.664780
3761.000000	100.662926
3760.000000	100.661867
3759.000000	100.661376
3758.000000	100.660659
3757.000000	100.659296
3756.000000	100.657625
3755.000000	100.656249
3754.000000	100.655597
3753.000000	100.655583
3752.000000	100.655229
3751.000000	100.653351
3750.000000	100.650000
3749.000000	100.646369
3748.000000	100.643198
3747.000000	100.640260
3746.000000	100.637123
3745.000000	100.633804
3744.000000	100.631032
3743.000000	100.628878
3742.000000	100.626024
3741.000000	100.622491
3740.000000	100.619794
3739.000000	100.618005
3738.000000	100.615866
3737.000000	100.612701
3736.000000	100.609129
3735.000000	100.606100
3734.000000	100.603768
3733.000000	100.601846
3732.000000	100.600283
3731.000000	100.598889
3730.000000	100.596892
3729.000000	100.593711
3728.000000	100.589721
3727.000000	100.585971
3726.000000	100.583245
3725.000000	100.581473
3724.000000	100.579945
3723.000000	100.577993
3722.000000	100.575236
3721.000000	100.571483
3720.000000	100.566966
3719.000000	100.562479
3718.000000	100.558997
3717.000000	100.557038
3716.000000	100.556311
3715.000000	100.555745
3714.000000	100.554151
3713.000000	100.550795
3712.000000	100.545833
3711.000000	100.540350
3710.000000	100.534903
3709.000000	100.528959
3708.000000	100.522592
3707.000000	100.517006
3706.000000	100.512993
3705.000000	100.509819
3704.000000	100.506013
3703.000000	100.501044
3702.000000	100.495829
3701.000000	100.491361
3700.000000	100.487201
3699.000000	100.482558
3698.000000	100.478361
3697.000000	100.476480
3696.000000	100.476839
3695.000000	100.476738
3694.000000	100.473923
3693.000000	100.469241
3692.000000	100.464685
3691.000000	100.460007
3690.000000	100.453464
3689.000000	100.445349
3688.000000	100.437754
3687.000000	100.430427
3686.000000	100.421527
3685.000000	100.412370
3684.000000	100.406663
3683.000000	100.405388
3682.000000	100.405430
3681.000000	100.403325
3680.000000	100.398869
3679.000000	100.393857
3678.000000	100.388358
3677.000000	100.381313
3676.000000	100.374254
3675.000000	100.370673
3674.000000	100.367757
3673.000000	100.357434
3672.000000	100.339625
3671.000000	100.321579
3670.000000	100.307429
3669.000000	100.295873
3668.000000	100.282472
3667.000000	100.266249
3666.000000	100.252745
3665.000000	100.246001
3664.000000	100.243887
3663.000000	100.241658
3662.000000	100.236363
3661.000000	100.227820
3660.000000	100.216850
3659.000000	100.203937
3658.000000	100.190136
3657.000000	100.178120
3656.000000	100.170201
3655.000000	100.164843
3654.000000	100.157222
3653.000000	100.145493
3652.000000	100.132322
3651.000000	100.119606
3650.000000	100.106880
3649.000000	100.094601
3648.000000	100.083991
3647.000000	100.075163
3646.000000	100.067490
3645.000000	100.059875
3644.000000	100.051647
3643.000000	100.043345
3642.000000	100.035889
3641.000000	100.029371
3640.000000	100.023393
3639.000000	100.017941
3638.000000	100.012979
3637.000000	100.007007
3636.000000	99.998185
3635.000000	99.987754
3634.000000	99.979721
3633.000000	99.976022
3632.000000	99.973979
3631.000000	99.970370
3630.000000	99.965555
3629.000000	99.962127
3628.000000	99.959779
3627.000000	99.952640
3626.000000	99.938749
3625.000000	99.926288
3624.000000	99.921249
3623.000000	99.919782
3622.000000	99.915651
3621.000000	99.908745
3620.000000	99.904955
3619.000000	99.908127
3618.000000	99.914711
3617.000000	99.918543
3616.000000	99.918727
3615.000000	99.919790
3614.000000	99.925744
3613.000000	99.936081
3612.000000	99.946331
3611.000000	99.951838
3610.000000	99.951336
3609.000000	99.947389
3608.000000	99.944161
3607.000000	99.944223
3606.000000	99.947032
3605.000000	99.950428
3604.000000	99.952705
3603.000000	99.953255
3602.000000	99.952833
3601.000000	99.953265
3600.000000	99.956032
3599.000000	99.960994
3598.000000	99.966506
3597.000000	99.970392
3596.000000	99.970680
3595.000000	99.967161
3594.000000	99.962365
3593.000000	99.959497
3592.000000	99.959254
3591.000000	99.959913
3590.000000	99.959549
3589.000000	99.957888
3588.000000	99.956275
3587.000000	99.955677
3586.000000	99.955420
3585.000000	99.954933
3584.000000	99.955514
3583.000000	99.958705
3582.000000	99.963827
3581.000000	99.968131
3580.000000	99.969116
3579.000000	99.966571
3578.000000	99.962709
3577.000000	99.960437
3576.000000	99.960992
3575.000000	99.963077
3574.000000	99.963953
3573.000000	99.961491
3572.000000	99.955421
3571.000000	99.947420
3570.000000	99.940351
3569.000000	99.936498
3568.000000	99.935579
3567.000000	99.934426
3566.000000	99.930105
3565.000000	99.923250
3564.000000	99.917301
3563.000000	99.914779
3562.000000	99.915091
3561.000000	99.915775
3560.000000	99.915173
3559.000000	99.913589
3558.000000	99.912177
3557.000000	99.911430
3556.000000	99.910794
3555.000000	99.909283
3554.000000	99.906379
3553.000000	99.902561
3552.000000	99.898975
3551.000000	99.896334
3550.000000	99.894286
3549.000000	99.891817
3548.000000	99.888049
3547.000000	99.882790
3546.000000	99.876820
3545.000000	99.871561
3544.000000	99.867948
3543.000000	99.865629
3542.000000	99.863567
3541.000000	99.861305
3540.000000	99.859409
3539.000000	99.858677
3538.000000	99.859314
3537.000000	99.860888
3536.000000	99.862706
3535.000000	99.864106
3534.000000	99.864679
3533.000000	99.864507
3532.000000	99.864005
3531.000000	99.863293
3530.000000	99.861968
3529.000000	99.859800
3528.000000	99.857179
3527.000000	99.854394
3526.000000	99.850858
3525.000000	99.845875
3524.000000	99.840140
3523.000000	99.835674
3522.000000	99.833873
3521.000000	99.834225
3520.000000	99.835022
3519.000000	99.834834
3518.000000	99.833182
3517.000000	99.830287
3516.000000	99.826939
3515.000000	99.824476
3514.000000	99.824040
3513.000000	99.825512
3512.000000	99.827376
3511.000000	99.827952
3510.000000	99.826859
3509.000000	99.825102
3508.000000	99.823833
3507.000000	99.823182
3506.000000	99.822348
3505.000000	99.820654
3504.000000	99.818334
3503.000000	99.816303
3502.000000	99.815193
3501.000000	99.814812
3500.000000	99.814513
3499.000000	99.813817
3498.000000	99.812650
3497.000000	99.811180
3496.000000	99.809575
3495.000000	99.807902
3494.000000	99.806147
3493.000000	99.804309
3492.000000	99.802473
3491.000000	99.800788
3490.000000	99.799326
3489.000000	99.797964
3488.000000	99.796500
3487.000000	99.794895
3486.000000	99.793354
3485.000000	99.792091
3484.000000	99.791061
3483.000000	99.789944
3482.000000	99.788443
3481.000000	99.786513
3480.000000	99.784303
3479.000000	99.781973
3478.000000	99.779640
3477.000000	99.777428
3476.000000	99.775477
3475.000000	99.773826
3474.000000	99.772311
3473.000000	99.770625
3472.000000	99.768473
3471.000000	99.765744
3470.000000	99.762619
3469.000000	99.759575
3468.000000	99.757117
3467.000000	99.755424
3466.000000	99.754164
3465.000000	99.752676
3464.000000	99.750486
3463.000000	99.747621
3462.000000	99.744544
3461.000000	99.741786
3460.000000	99.739632
3459.000000	99.738051
3458.000000	99.736740
3457.000000	99.735258
3456.000000	99.733265
3455.000000	99.730749
3454.000000	99.727914
3453.000000	99.724855
3452.000000	99.721521
3451.000000	99.717951
3450.000000	99.714380
3449.000000	99.711051
3448.000000	99.708056
3447.000000	99.705405
3446.000000	99.703056
3445.000000	99.700743
3444.000000	99.697919
3443.000000	99.694132
3442.000000	99.689468
3441.000000	99.684561
3440.000000	99.680120
3439.000000	99.676583
3438.000000	99.674161
3437.000000	99.672900
3436.000000	99.672516
3435.000000	99.672264
3434.000000	99.671243
3433.000000	99.668975
3432.000000	99.665668
3431.000000	99.661972
3430.000000	99.658466
3429.000000	99.655296
3428.000000	99.652259
3427.000000	99.649173
3426.000000	99.646108
3425.000000	99.643216
3424.000000	99.640489
3423.000000	99.637880
3422.000000	99.635583
3421.000000	99.633771
3420.000000	99.632103
3419.000000	99.629927
3418.000000	99.627145
3417.000000	99.624502
3416.000000	99.622708
3415.000000	99.621534
3414.000000	99.620069
3413.000000	99.617764
3412.000000	99.614930
3411.000000	99.612305
3410.000000	99.610370
3409.000000	99.609110
3408.000000	99.608211
3407.000000	99.607291
3406.000000	99.606056
3405.000000	99.604382
3404.000000	99.602325
3403.000000	99.600069
3402.000000	99.597861
3401.000000	99.595929
3400.000000	99.594382
3399.000000	99.593133
3398.000000	99.591973
3397.000000	99.590776
3396.000000	99.589583
3395.000000	99.588487
3394.000000	99.587479
3393.000000	99.586416
3392.000000	99.585138
3391.000000	99.583612
3390.000000	99.581989
3389.000000	99.580517
3388.000000	99.579361
3387.000000	99.578460
3386.000000	99.577573
3385.000000	99.576540
3384.000000	99.575485
3383.000000	99.574682
3382.000000	99.574231
3381.000000	99.573913
3380.000000	99.573342
3379.000000	99.572291
3378.000000	99.570890
3377.000000	99.569578
3376.000000	99.568735
3375.000000	99.568313
3374.000000	99.567855
3373.000000	99.566983
3372.000000	99.565836
3371.000000	99.564921
3370.000000	99.564542
3369.000000	99.564470
3368.000000	99.564229
3367.000000	99.563596
3366.000000	99.562741
3365.000000	99.562047
3364.000000	99.561830
3363.000000	99.562158
3362.000000	99.562776
3361.000000	99.563250
3360.000000	99.563299
3359.000000	99.563058
3358.000000	99.562977
3357.000000	99.563383
3356.000000	99.564121
3355.000000	99.564656
3354.000000	99.564559
3353.000000	99.563837
3352.000000	99.562829
3351.000000	99.561859
3350.000000	99.561032
3349.000000	99.560315
3348.000000	99.559708
3347.000000	99.559335
3346.000000	99.559412
3345.000000	99.560098
3344.000000	99.561300
3343.000000	99.562548
3342.000000	99.563222
3341.000000	99.563041
3340.000000	99.562246
3339.000000	99.561389
3338.000000	99.560834
3337.000000	99.560589
3336.000000	99.560597
3335.000000	99.560944
3334.000000	99.561683
3333.000000	99.562591
3332.000000	99.563272
3331.000000	99.563523
3330.000000	99.563477
3329.000000	99.563452
3328.000000	99.563683
3327.000000	99.564175
3326.000000	99.564725
3325.000000	99.565050
3324.000000	99.564990
3323.000000	99.564666
3322.000000	99.564433
3321.000000	99.564580
3320.000000	99.565064
3319.000000	99.565534
3318.000000	99.565660
3317.000000	99.565387
3316.000000	99.564845
3315.000000	99.564118
3314.000000	99.563254
3313.000000	99.562447
3312.000000	99.562042
3311.000000	99.562259
3310.000000	99.562914
3309.000000	99.563479
3308.000000	99.563476
3307.000000	99.562845
3306.000000	99.562006
3305.000000	99.561567
3304.000000	99.561867
3303.000000	99.562727
3302.000000	99.563596
3301.000000	99.563991
3300.000000	99.563791
3299.000000	99.563144
3298.000000	99.562337
3297.000000	99.561792
3296.000000	99.561929
3295.000000	99.562794
3294.000000	99.563928
3293.000000	99.564883
3292.000000	99.565760
3291.000000	99.566876
3290.000000	99.567943
3289.000000	99.568117
3288.000000	99.567033
3287.000000	99.565321
3286.000000	99.563798
3285.000000	99.562424
3284.000000	99.560513
3283.000000	99.557806
3282.000000	99.555030
3281.000000	99.553262
3280.000000	99.552953
3279.000000	99.553658
3278.000000	99.554587
3277.000000	99.555468
3276.000000	99.556750
3275.000000	99.558820
3274.000000	99.561081
3273.000000	99.562159
3272.000000	99.561251
3271.000000	99.558976
3270.000000	99.556801
3269.000000	99.555642
3268.000000	99.555276
3267.000000	99.555060
3266.000000	99.554736
3265.000000	99.554398
3264.000000	99.553990
3263.000000	99.553220
3262.000000	99.552041
3261.000000	99.550996
3260.000000	99.550919
3259.000000	99.552215
3258.000000	99.554397
3257.000000	99.556411
3256.000000	99.557593
3255.000000	99.558272
3254.000000	99.559294
3253.000000	99.560958
3252.000000	99.562570
3251.000000	99.563160
3250.000000	99.562399
3249.000000	99.560646
3248.000000	99.558360
3247.000000	99.555822
3246.000000	99.553456
3245.000000	99.551943
3244.000000	99.551676
3243.000000	99.552313
3242.000000	99.553250
3241.000000	99.554496
3240.000000	99.556566
3239.000000	99.559457
3238.000000	99.562156
3237.000000	99.563469
3236.000000	99.563116
3235.000000	99.561742
3234.000000	99.560212
3233.000000	99.559113
3232.000000	99.558854
3231.000000	99.559742
3230.000000	99.561651
3229.000000	99.563798
3228.000000	99.565236
3227.000000	99.565634
3226.000000	99.565395
3225.000000	99.565155
3224.000000	99.565208
3223.000000	99.565422
3222.000000	99.565546
3221.000000	99.565520
3220.000000	99.565497
3219.000000	99.565608
3218.000000	99.565737
3217.000000	99.565602
3216.000000	99.565112
3215.000000	99.564543
3214.000000	99.564318
3213.000000	99.564600
3212.000000	99.565189
3211.000000	99.565745
3210.000000	99.566079
3209.000000	99.566245
3208.000000	99.566403
3207.000000	99.566640
3206.000000	99.566911
3205.000000	99.567121
3204.000000	99.567244
3203.000000	99.567354
3202.000000	99.567535
3201.000000	99.567804
3200.000000	99.568125
3199.000000	99.568446
3198.000000	99.568716
3197.000000	99.568896
3196.000000	99.568978
3195.000000	99.569000
3194.000000	99.569029
3193.000000	99.569111
3192.000000	99.569270
3191.000000	99.569561
3190.000000	99.570039
3189.000000	99.570602
3188.000000	99.570967
3187.000000	99.570930
3186.000000	99.570550
3185.000000	99.570036
3184.000000	99.569551
3183.000000	99.569235
3182.000000	99.569287
3181.000000	99.569765
3180.000000	99.570344
3179.000000	99.570605
3178.000000	99.570605
3177.000000	99.570840
3176.000000	99.571506
3175.000000	99.572127
3174.000000	99.572122
3173.000000	99.571503
3172.000000	99.570783
3171.000000	99.570447
3170.000000	99.570784
3169.000000	99.571946
3168.000000	99.573769
3167.000000	99.575541
3166.000000	99.576477
3165.000000	99.576543
3164.000000	99.576457
3163.000000	99.576800
3162.000000	99.577357
3161.000000	99.577504
3160.000000	99.576933
3159.000000	99.575709
3158.000000	99.573885
3157.000000	99.571515
3156.000000	99.568995
3155.000000	99.566959
3154.000000	99.565643
3153.000000	99.564732
3152.000000	99.564086
3151.000000	99.564275
3150.000000	99.565899
3149.000000	99.568628
3148.000000	99.571292
3147.000000	99.572964
3146.000000	99.573641
3145.000000	99.573855
3144.000000	99.574062
3143.000000	99.574446
3142.000000	99.574917
3141.000000	99.575071
3140.000000	99.574439
3139.000000	99.573046
3138.000000	99.571593
3137.000000	99.570773
3136.000000	99.570545
3135.000000	99.570338
3134.000000	99.569903
3133.000000	99.569672
3132.000000	99.570211
3131.000000	99.571509
3130.000000	99.572873
3129.000000	99.573402
3128.000000	99.572567
3127.000000	99.570461
3126.000000	99.567770
3125.000000	99.565487
3124.000000	99.564341
3123.000000	99.564378
3122.000000	99.565000
3121.000000	99.565490
3120.000000	99.565596
3119.000000	99.565547
3118.000000	99.565648
3117.000000	99.565945
3116.000000	99.566253
3115.000000	99.566379
3114.000000	99.566298
3113.000000	99.566157
3112.000000	99.566130
3111.000000	99.566258
3110.000000	99.566407
3109.000000	99.566399
3108.000000	99.566183
3107.000000	99.565867
3106.000000	99.565605
3105.000000	99.565472
3104.000000	99.565440
3103.000000	99.565450
3102.000000	99.565470
3101.000000	99.565486
3100.000000	99.565474
3099.000000	99.565408
3098.000000	99.565283
3097.000000	99.565123
3096.000000	99.564981
3095.000000	99.564900
3094.000000	99.564879
3093.000000	99.564865
3092.000000	99.564795
3091.000000	99.564657
3090.000000	99.564503
3089.000000	99.564391
3088.000000	99.564336
3087.000000	99.564314
3086.000000	99.564291
3085.000000	99.564230
3084.000000	99.564082
3083.000000	99.563844
3082.000000	99.563627
3081.000000	99.563596
3080.000000	99.563841
3079.000000	99.564270
3078.000000	99.564622
3077.000000	99.564673
3076.000000	99.564338
3075.000000	99.563662
3074.000000	99.562805
3073.000000	99.562012
3072.000000	99.561512
3071.000000	99.561358
3070.000000	99.561371
3069.000000	99.561335
3068.000000	99.561247
3067.000000	99.561293
3066.000000	99.561532
3065.000000	99.561703
3064.000000	99.561457
3063.000000	99.560808
3062.000000	99.560257
3061.000000	99.560359
3060.000000	99.561127
3059.000000	99.561867
3058.000000	99.561711
3057.000000	99.560314
3056.000000	99.558068
3055.000000	99.555836
3054.000000	99.554326
3053.000000	99.553745
3052.000000	99.553866
3051.000000	99.554234
3050.000000	99.554442
3049.000000	99.554343
3048.000000	99.554089
3047.000000	99.553969
3046.000000	99.554150
3045.000000	99.554557
3044.000000	99.554983
3043.000000	99.555242
3042.000000	99.555216
3041.000000	99.554965
3040.000000	99.554874
3039.000000	99.555426
3038.000000	99.556551
3037.000000	99.557296
3036.000000	99.556579
3035.000000	99.554386
3034.000000	99.552083
3033.000000	99.551332
3032.000000	99.552796
3031.000000	99.555859
3030.000000	99.559257
3029.000000	99.562025
3028.000000	99.564052
3027.000000	99.565873
3026.000000	99.567810
3025.000000	99.569315
3024.000000	99.569537
3023.000000	99.568513
3022.000000	99.567102
3021.000000	99.565482
3020.000000	99.562708
3019.000000	99.558680
3018.000000	99.555935
3017.000000	99.558155
3016.000000	99.566655
3015.000000	99.578735
3014.000000	99.589385
3013.000000	99.594690
3012.000000	99.594217
3011.000000	99.591124
3010.000000	99.589740
3009.000000	99.592096
3008.000000	99.596786
3007.000000	99.601201
3006.000000	99.604163
3005.000000	99.605949
3004.000000	99.606825
3003.000000	99.606673
3002.000000	99.605399
3001.000000	99.602622
3000.000000	99.597553
2999.000000	99.590517
2998.000000	99.584104
2997.000000	99.581121
2996.000000	99.581410
2995.000000	99.582269
2994.000000	99.582277
2993.000000	99.583101
2992.000000	99.586826
2991.000000	99.592867
2990.000000	99.598442
2989.000000	99.601199
2988.000000	99.600602
2987.000000	99.597605
2986.000000	99.593999
2985.000000	99.591598
2984.000000	99.591134
2983.000000	99.592109
2982.000000	99.594105
2981.000000	99.597567
2980.000000	99.602569
2979.000000	99.607633
2978.000000	99.611223
2977.000000	99.614340
2976.000000	99.620186
2975.000000	99.630866
2974.000000	99.645608
2973.000000	99.662808
2972.000000	99.682746
2971.000000	99.707093
2970.000000	99.736289
2969.000000	99.768875
2968.000000	99.803298
2967.000000	99.838591
2966.000000	99.872528
2965.000000	99.901137
2964.000000	99.922293
2963.000000	99.939219
2962.000000	99.958030
2961.000000	99.980993
2960.000000	100.003884
2959.000000	100.020895
2958.000000	100.030623
2957.000000	100.035869
2956.000000	100.039076
2955.000000	100.040490
2954.000000	100.040534
2953.000000	100.041378
2952.000000	100.044920
2951.000000	100.050655
2950.000000	100.056774
2949.000000	100.062612
2948.000000	100.069053
2947.000000	100.077454
2946.000000	100.089458
2945.000000	100.107304
2944.000000	100.132645
2943.000000	100.164782
2942.000000	100.201450
2941.000000	100.241931
2940.000000	100.288065
2939.000000	100.340979
2938.000000	100.397604
2937.000000	100.452342
2936.000000	100.502734
2935.000000	100.552364
2934.000000	100.607226
2933.000000	100.669659
2932.000000	100.736136
2931.000000	100.800330
2930.000000	100.857514
2929.000000	100.906523
2928.000000	100.948750
2927.000000	100.985431
2926.000000	101.014925
2925.000000	101.032013
2924.000000	101.030570
2923.000000	101.008074
2922.000000	100.967992
2921.000000	100.917364
2920.000000	100.861209
2919.000000	100.799026
2918.000000	100.727196
2917.000000	100.645257
2916.000000	100.559611
2915.000000	100.480275
2914.000000	100.413392
2913.000000	100.357419
2912.000000	100.306816
2911.000000	100.258688
2910.000000	100.214950
2909.000000	100.178628
2908.000000	100.149748
2907.000000	100.125456
2906.000000	100.103129
2905.000000	100.082407
2904.000000	100.064392
2903.000000	100.049274
2902.000000	100.034635
2901.000000	100.016468
2900.000000	99.992755
2899.000000	99.966266
2898.000000	99.942562
2897.000000	99.924710
2896.000000	99.911009
2895.000000	99.898230
2894.000000	99.885478
2893.000000	99.873549
2892.000000	99.861916
2891.000000	99.848757
2890.000000	99.833891
2889.000000	99.819717
2888.000000	99.808654
2887.000000	99.800854
2886.000000	99.794962
2885.000000	99.790005
2884.000000	99.785805
2883.000000	99.782388
2882.000000	99.779923
2881.000000	99.778949
2880.000000	99.780006
2879.000000	99.783180
2878.000000	99.788554
2877.000000	99.797062
2876.000000	99.810237
2875.000000	99.828383
2874.000000	99.848824
2873.000000	99.866710
2872.000000	99.878662
2871.000000	99.886001
2870.000000	99.893641
2869.000000	99.905450
2868.000000	99.921237
2867.000000	99.938485
2866.000000	99.955903
2865.000000	99.974279
2864.000000	99.994903
2863.000000	100.019033
2862.000000	100.048860
2861.000000	100.087067
2860.000000	100.134211
2859.000000	100.187036
2858.000000	100.239803
2857.000000	100.286872
2856.000000	100.324074
2855.000000	100.348715
2854.000000	100.359262
2853.000000	100.354884
2852.000000	100.334953
2851.000000	100.299333
2850.000000	100.249584
2849.000000	100.189709
2848.000000	100.125121
2847.000000	100.060585
2846.000000	99.999080
2845.000000	99.942547
2844.000000	99.893275
2843.000000	99.853760
2842.000000	99.824426
2841.000000	99.801781
2840.000000	99.780407
2839.000000	99.757913
2838.000000	99.737076
2837.000000	99.721905
2836.000000	99.712282
2835.000000	99.704017
2834.000000	99.693907
2833.000000	99.682809
2832.000000	99.673238
2831.000000	99.665730
2830.000000	99.658839
2829.000000	99.651735
2828.000000	99.645336
2827.000000	99.641014
2826.000000	99.639102
2825.000000	99.638626
2824.000000	99.637883
2823.000000	99.635323
2822.000000	99.630561
2821.000000	99.624865
2820.000000	99.620345
2819.000000	99.618293
2818.000000	99.618163
2817.000000	99.618206
2816.000000	99.617254
2815.000000	99.615989
2814.000000	99.616303
2813.000000	99.619225
2812.000000	99.623524
2811.000000	99.626515
2810.000000	99.626210
2809.000000	99.622707
2808.000000	99.617808
2807.000000	99.613463
2806.000000	99.610253
2805.000000	99.607171
2804.000000	99.603252
2803.000000	99.599606
2802.000000	99.599067
2801.000000	99.603110
2800.000000	99.609670
2799.000000	99.614854
2798.000000	99.616588
2797.000000	99.615721
2796.000000	99.614082
2795.000000	99.612755
2794.000000	99.612259
2793.000000	99.613040
2792.000000	99.615102
2791.000000	99.617841
2790.000000	99.620692
2789.000000	99.623385
2788.000000	99.625356
2787.000000	99.625667
2786.000000	99.624189
2785.000000	99.622540
2784.000000	99.623075
2783.000000	99.626701
2782.000000	99.631865
2781.000000	99.635866
2780.000000	99.637306
2779.000000	99.637062
2778.000000	99.636897
2777.000000	99.637566
2776.000000	99.638582
2775.000000	99.639357
2774.000000	99.639886
2773.000000	99.640493
2772.000000	99.641450
2771.000000	99.642893
2770.000000	99.644775
2769.000000	99.646809
2768.000000	99.648617
2767.000000	99.650091
2766.000000	99.651438
2765.000000	99.652843
2764.000000	99.654299
2763.000000	99.655742
2762.000000	99.657173
2761.000000	99.658614
2760.000000	99.660059
2759.000000	99.661505
2758.000000	99.662946
2757.000000	99.664373
2756.000000	99.665783
2755.000000	99.667175
2754.000000	99.668553
2753.000000	99.669922
2752.000000	99.671282
2751.000000	99.672626
2750.000000	99.673947
2749.000000	99.675247
2748.000000	99.676536
2747.000000	99.677827
2746.000000	99.679129
2745.000000	99.680436
2744.000000	99.681741
2743.000000	99.683033
2742.000000	99.684307
2741.000000	99.685567
2740.000000	99.686818
2739.000000	99.688066
2738.000000	99.689313
2737.000000	99.690557
2736.000000	99.691798
2735.000000	99.693033
2734.000000	99.694262
2733.000000	99.695482
2732.000000	99.696687
2731.000000	99.697868
2730.000000	99.699016
2729.000000	99.700131
2728.000000	99.701218
2727.000000	99.702290
2726.000000	99.703357
2725.000000	99.704426
2724.000000	99.705501
2723.000000	99.706580
2722.000000	99.707658
2721.000000	99.708734
2720.000000	99.709808
2719.000000	99.710876
2718.000000	99.711933
2717.000000	99.712971
2716.000000	99.713990
2715.000000	99.714996
2714.000000	99.715998
2713.000000	99.717005
2712.000000	99.718015
2711.000000	99.719020
2710.000000	99.720014
2709.000000	99.720987
2708.000000	99.721951
2707.000000	99.722948
2706.000000	99.724025
2705.000000	99.725188
2704.000000	99.726359
2703.000000	99.727411
2702.000000	99.728275
2701.000000	99.729022
2700.000000	99.729803
2699.000000	99.730662
2698.000000	99.731513
2697.000000	99.732299
2696.000000	99.733114
2695.000000	99.734100
2694.000000	99.735262
2693.000000	99.736417
2692.000000	99.737328
2691.000000	99.737893
2690.000000	99.738264
2689.000000	99.738738
2688.000000	99.739492
2687.000000	99.740495
2686.000000	99.741703
2685.000000	99.743193
2684.000000	99.744945
2683.000000	99.746613
2682.000000	99.747798
2681.000000	99.748478
2680.000000	99.748987
2679.000000	99.749595
2678.000000	99.750250
2677.000000	99.750717
2676.000000	99.750766
2675.000000	99.750308
2674.000000	99.749624
2673.000000	99.749361
2672.000000	99.749954
2671.000000	99.751124
2670.000000	99.752201
2669.000000	99.753017
2668.000000	99.754065
2667.000000	99.755705
2666.000000	99.757664
2665.000000	99.759416
2664.000000	99.760707
2663.000000	99.761507
2662.000000	99.761744
2661.000000	99.761416
2660.000000	99.760871
2659.000000	99.760660
2658.000000	99.761089
2657.000000	99.762109
2656.000000	99.763542
2655.000000	99.765215
2654.000000	99.766868
2653.000000	99.768146
2652.000000	99.768815
2651.000000	99.768918
2650.000000	99.768758
2649.000000	99.768771
2648.000000	99.769343
2647.000000	99.770554
2646.000000	99.771999
2645.000000	99.773016
2644.000000	99.773298
2643.000000	99.773193
2642.000000	99.773334
2641.000000	99.773961
2640.000000	99.774818
2639.000000	99.775674
2638.000000	99.776749
2637.000000	99.778385
2636.000000	99.780419
2635.000000	99.782179
2634.000000	99.783186
2633.000000	99.783628
2632.000000	99.784012
2631.000000	99.784411
2630.000000	99.784380
2629.000000	99.783687
2628.000000	99.782827
2627.000000	99.782579
2626.000000	99.783171
2625.000000	99.784142
2624.000000	99.784980
2623.000000	99.785718
2622.000000	99.786767
2621.000000	99.788371
2620.000000	99.790378
2619.000000	99.792432
2618.000000	99.794207
2617.000000	99.795531
2616.000000	99.796400
2615.000000	99.796969
2614.000000	99.797497
2613.000000	99.798284
2612.000000	99.799544
2611.000000	99.801213
2610.000000	99.802900
2609.000000	99.804220
2608.000000	99.805215
2607.000000	99.806255
2606.000000	99.807448
2605.000000	99.808377
2604.000000	99.808633
2603.000000	99.808344
2602.000000	99.807969
2601.000000	99.807730
2600.000000	99.807610
2599.000000	99.807876
2598.000000	99.809086
2597.000000	99.811401
2596.000000	99.814155
2595.000000	99.816302
2594.000000	99.817405
2593.000000	99.817847
2592.000000	99.818260
2591.000000	99.818876
2590.000000	99.819508
2589.000000	99.820025
2588.000000	99.820593
2587.000000	99.821444
2586.000000	99.822545
2585.000000	99.823616
2584.000000	99.824474
2583.000000	99.825240
2582.000000	99.826139
2581.000000	99.827167
2580.000000	99.828099
2579.000000	99.828806
2578.000000	99.829428
2577.000000	99.830181
2576.000000	99.831124
2575.000000	99.832246
2574.000000	99.833593
2573.000000	99.835129
2572.000000	99.836576
2571.000000	99.837632
2570.000000	99.838315
2569.000000	99.838961
2568.000000	99.839877
2567.000000	99.841058
2566.000000	99.842280
2565.000000	99.843380
2564.000000	99.844368
2563.000000	99.845298
2562.000000	99.846160
2561.000000	99.846947
2560.000000	99.847730
2559.000000	99.848590
2558.000000	99.849503
2557.000000	99.850371
2556.000000	99.851154
2555.000000	99.851950
2554.000000	99.852890
2553.000000	99.853939
2552.000000	99.854850
2551.000000	99.855382
2550.000000	99.855576
2549.000000	99.855775
2548.000000	99.856371
2547.000000	99.857497
2546.000000	99.858993
2545.000000	99.860533
2544.000000	99.861812
2543.000000	99.862699
2542.000000	99.863276
2541.000000	99.863718
2540.000000	99.864097
2539.000000	99.864422
2538.000000	99.864848
2537.000000	99.865654
2536.000000	99.866927
2535.000000	99.868440
2534.000000	99.869908
2533.000000	99.871180
2532.000000	99.872107
2531.000000	99.872475
2530.000000	99.872259
2529.000000	99.871745
2528.000000	99.871239
2527.000000	99.870875
2526.000000	99.870934
2525.000000	99.871992
2524.000000	99.874269
2523.000000	99.877115
2522.000000	99.879552
2521.000000	99.881290
2520.000000	99.882785
2519.000000	99.884368
2518.000000	99.885772
2517.000000	99.886602
2516.000000	99.886869
2515.000000	99.886816
2514.000000	99.886539
2513.000000	99.886106
2512.000000	99.885856
2511.000000	99.886204
2510.000000	99.887139
2509.000000	99.888182
2508.000000	99.889001
2507.000000	99.889921
2506.000000	99.891555
2505.000000	99.894039
2504.000000	99.896807
2503.000000	99.899126
2502.000000	99.900674
2501.000000	99.901489
2500.000000	99.901646
2499.000000	99.901278
2498.000000	99.900830
2497.000000	99.900959
2496.000000	99.902009
2495.000000	99.903764
2494.000000	99.905662
2493.000000	99.907234
2492.000000	99.908372
2491.000000	99.909255
2490.000000	99.910128
2489.000000	99.911046
2488.000000	99.911859
2487.000000	99.912491
2486.000000	99.913153
2485.000000	99.914106
2484.000000	99.915279
2483.000000	99.916328
2482.000000	99.917071
2481.000000	99.917669
2480.000000	99.918365
2479.000000	99.919205
2478.000000	99.920121
2477.000000	99.921105
2476.000000	99.922152
2475.000000	99.923144
2474.000000	99.923953
2473.000000	99.924620
2472.000000	99.925341
2471.000000	99.926273
2470.000000	99.927410
2469.000000	99.928640
2468.000000	99.929821
2467.000000	99.930858
2466.000000	99.931754
2465.000000	99.932617
2464.000000	99.933569
2463.000000	99.934634
2462.000000	99.935753
2461.000000	99.936892
2460.000000	99.938079
2459.000000	99.939314
2458.000000	99.940527
2457.000000	99.941667
2456.000000	99.942772
2455.000000	99.943876
2454.000000	99.944918
2453.000000	99.945839
2452.000000	99.946717
2451.000000	99.947712
2450.000000	99.948920
2449.000000	99.950289
2448.000000	99.951650
2447.000000	99.952831
2446.000000	99.953776
2445.000000	99.954592
2444.000000	99.955443
2443.000000	99.956338
2442.000000	99.957129
2441.000000	99.957766
2440.000000	99.958493
2439.000000	99.959659
2438.000000	99.961376
2437.000000	99.963386
2436.000000	99.965226
2435.000000	99.966601
2434.000000	99.967555
2433.000000	99.968353
2432.000000	99.969179
2431.000000	99.970006
2430.000000	99.970838
2429.000000	99.971910
2428.000000	99.973384
2427.000000	99.974993
2426.000000	99.976334
2425.000000	99.977498
2424.000000	99.979014
2423.000000	99.981116
2422.000000	99.983411
2421.000000	99.985356
2420.000000	99.986750
2419.000000	99.987611
2418.000000	99.988007
2417.000000	99.988267
2416.000000	99.988890
2415.000000	99.989899
2414.000000	99.990687
2413.000000	99.990792
2412.000000	99.990586
2411.000000	99.990894
2410.000000	99.992054
2409.000000	99.993725
2408.000000	99.995462
2407.000000	99.997180
2406.000000	99.999021
2405.000000	100.000987
2404.000000	100.002837
2403.000000	100.004268
2402.000000	100.005185
2401.000000	100.005813
2400.000000	100.006485
2399.000000	100.007305
2398.000000	100.008146
2397.000000	100.008967
2396.000000	100.009956
2395.000000	100.011320
2394.000000	100.013087
2393.000000	100.015066
2392.000000	100.016913
2391.000000	100.018220
2390.000000	100.018746
2389.000000	100.018678
2388.000000	100.018564
2387.000000	100.018781
2386.000000	100.019269
2385.000000	100.019814
2384.000000	100.020381
2383.000000	100.021094
2382.000000	100.022010
2381.000000	100.023077
2380.000000	100.024216
2379.000000	100.025306
2378.000000	100.026178
2377.000000	100.026805
2376.000000	100.027448
2375.000000	100.028465
2374.000000	100.029891
2373.000000	100.031321
2372.000000	100.032282
2371.000000	100.032685
2370.000000	100.032825
2369.000000	100.033070
2368.000000	100.033549
2367.000000	100.034154
2366.000000	100.034727
2365.000000	100.035247
2364.000000	100.035868
2363.000000	100.036740
2362.000000	100.037807
2361.000000	100.038816
2360.000000	100.039540
2359.000000	100.039868
2358.000000	100.039745
2357.000000	100.039232
2356.000000	100.038665
2355.000000	100.038600
2354.000000	100.039336
2353.000000	100.040668
2352.000000	100.042123
2351.000000	100.043464
2350.000000	100.044757
2349.000000	100.046002
2348.000000	100.047011
2347.000000	100.047570
2346.000000	100.047661
2345.000000	100.047578
2344.000000	100.047767
2343.000000	100.048498
2342.000000	100.049684
2341.000000	100.050981
2340.000000	100.052048
2339.000000	100.052806
2338.000000	100.053466
2337.000000	100.054235
2336.000000	100.055062
2335.000000	100.055711
2334.000000	100.056108
2333.000000	100.056413
2332.000000	100.056811
2331.000000	100.057286
2330.000000	100.057789
2329.000000	100.058379
2328.000000	100.059181
2327.000000	100.060179
2326.000000	100.061271
2325.000000	100.062387
2324.000000	100.063470
2323.000000	100.064430
2322.000000	100.065209
2321.000000	100.065889
2320.000000	100.066627
2319.000000	100.067483
2318.000000	100.068402
2317.000000	100.069315
2316.000000	100.070219
2315.000000	100.071124
2314.000000	100.072025
2313.000000	100.072890
2312.000000	100.073686
2311.000000	100.074393
2310.000000	100.075025
2309.000000	100.075626
2308.000000	100.076255
2307.000000	100.076937
2306.000000	100.077646
2305.000000	100.078329
2304.000000	100.078953
2303.000000	100.079532
2302.000000	100.080107
2301.000000	100.080711
2300.000000	100.081352
2299.000000	100.081984
2298.000000	100.082542
2297.000000	100.082999
2296.000000	100.083410
2295.000000	100.083853
2294.000000	100.084361
2293.000000	100.084918
2292.000000	100.085495
2291.000000	100.086066
2290.000000	100.086596
2289.000000	100.087054
2288.000000	100.087456
2287.000000	100.087872
2286.000000	100.088369
2285.000000	100.088945
2284.000000	100.089532
2283.000000	100.090049
2282.000000	100.090447
2281.000000	100.090687
2280.000000	100.090757
2279.000000	100.090735
2278.000000	100.090790
2277.000000	100.091036
2276.000000	100.091410
2275.000000	100.091704
2274.000000	100.091800
2273.000000	100.091813
2272.000000	100.091975
2271.000000	100.092391
2270.000000	100.093001
2269.000000	100.093679
2268.000000	100.094304
2267.000000	100.094752
2266.000000	100.094960
2265.000000	100.095047
2264.000000	100.095278
2263.000000	100.095817
2262.000000	100.096608
2261.000000	100.097470
2260.000000	100.098235
2259.000000	100.098767
2258.000000	100.098964
2257.000000	100.098879
2256.000000	100.098765
2255.000000	100.098888
2254.000000	100.099293
2253.000000	100.099818
2252.000000	100.100323
2251.000000	100.100803
2250.000000	100.101297
2249.000000	100.101795
2248.000000	100.102273
2247.000000	100.102762
2246.000000	100.103348
2245.000000	100.104099
2244.000000	100.104979
2243.000000	100.105833
2242.000000	100.106497
2241.000000	100.106935
2240.000000	100.107221
2239.000000	100.107433
2238.000000	100.107639
2237.000000	100.107975
2236.000000	100.108593
2235.000000	100.109482
2234.000000	100.110424
2233.000000	100.111216
2232.000000	100.111855
2231.000000	100.112397
2230.000000	100.112787
2229.000000	100.112995
2228.000000	100.113263
2227.000000	100.113947
2226.000000	100.115124
2225.000000	100.116502
2224.000000	100.117716
2223.000000	100.118686
2222.000000	100.119532
2221.000000	100.120350
2220.000000	100.121161
2219.000000	100.121966
2218.000000	100.122778
2217.000000	100.123613
2216.000000	100.124501
2215.000000	100.125478
2214.000000	100.126540
2213.000000	100.127636
2212.000000	100.128721
2211.000000	100.129782
2210.000000	100.130791
2209.000000	100.131688
2208.000000	100.132469
2207.000000	100.133243
2206.000000	100.134157
2205.000000	100.135232
2204.000000	100.136332
2203.000000	100.137341
2202.000000	100.138313
2201.000000	100.139393
2200.000000	100.140629
2199.000000	100.141914
2198.000000	100.143103
2197.000000	100.144150
2196.000000	100.145111
2195.000000	100.146045
2194.000000	100.146980
2193.000000	100.147953
2192.000000	100.149012
2191.000000	100.150141
2190.000000	100.151248
2189.000000	100.152252
2188.000000	100.153166
2187.000000	100.154076
2186.000000	100.155052
2185.000000	100.156119
2184.000000	100.157261
2183.000000	100.158395
2182.000000	100.159406
2181.000000	100.160275
2180.000000	100.161160
2179.000000	100.162233
2178.000000	100.163466
2177.000000	100.164653
2176.000000	100.165640
2175.000000	100.166435
2174.000000	100.167134
2173.000000	100.167812
2172.000000	100.168498
2171.000000	100.169158
2170.000000	100.169717
2169.000000	100.170166
2168.000000	100.170666
2167.000000	100.171445
2166.000000	100.172592
2165.000000	100.173990
2164.000000	100.175386
2163.000000	100.176549
2162.000000	100.177405
2161.000000	100.178062
2160.000000	100.178708
2159.000000	100.179415
2158.000000	100.180103
2157.000000	100.180744
2156.000000	100.181501
2155.000000	100.182564
2154.000000	100.183935
2153.000000	100.185430
2152.000000	100.186823
2151.000000	100.187922
2150.000000	100.188636
2149.000000	100.189100
2148.000000	100.189633
2147.000000	100.190364
2146.000000	100.191070
2145.000000	100.191543
2144.000000	100.191977
2143.000000	100.192775
2142.000000	100.194037
2141.000000	100.195507
2140.000000	100.196931
2139.000000	100.198223
2138.000000	100.199312
2137.000000	100.200181
2136.000000	100.201048
2135.000000	100.202183
2134.000000	100.203529
2133.000000	100.204749
2132.000000	100.205721
2131.000000	100.206738
2130.000000	100.208105
2129.000000	100.209755
2128.000000	100.211372
2127.000000	100.212768
2126.000000	100.213994
2125.000000	100.215172
2124.000000	100.216355
2123.000000	100.217515
2122.000000	100.218554
2121.000000	100.219402
2120.000000	100.220177
2119.000000	100.221151
2118.000000	100.222464
2117.000000	100.224014
2116.000000	100.225669
2115.000000	100.227399
2114.000000	100.229113
2113.000000	100.230611
2112.000000	100.231865
2111.000000	100.233125
2110.000000	100.234556
2109.000000	100.236002
2108.000000	100.237326
2107.000000	100.238776
2106.000000	100.240674
2105.000000	100.242844
2104.000000	100.244671
2103.000000	100.245788
2102.000000	100.246361
2101.000000	100.246869
2100.000000	100.247685
2099.000000	100.248920
2098.000000	100.250442
2097.000000	100.251932
2096.000000	100.253122
2095.000000	100.254027
2094.000000	100.254856
2093.000000	100.255759
2092.000000	100.256754
2091.000000	100.257851
2090.000000	100.259083
2089.000000	100.260468
2088.000000	100.262034
2087.000000	100.263797
2086.000000	100.265597
2085.000000	100.267089
2084.000000	100.268120
2083.000000	100.268973
2082.000000	100.269955
2081.000000	100.270933
2080.000000	100.271620
2079.000000	100.272151
2078.000000	100.272927
2077.000000	100.273970
2076.000000	100.274862
2075.000000	100.275343
2074.000000	100.275608
2073.000000	100.275968
2072.000000	100.276491
2071.000000	100.277074
2070.000000	100.277634
2069.000000	100.278166
2068.000000	100.278794
2067.000000	100.279763
2066.000000	100.281146
2065.000000	100.282558
2064.000000	100.283421
2063.000000	100.283560
2062.000000	100.283314
2061.000000	100.283152
2060.000000	100.283413
2059.000000	100.284330
2058.000000	100.285885
2057.000000	100.287504
2056.000000	100.288371
2055.000000	100.288275
2054.000000	100.287826
2053.000000	100.287733
2052.000000	100.288080
2051.000000	100.288635
2050.000000	100.289497
2049.000000	100.290980
2048.000000	100.292915
2047.000000	100.294481
2046.000000	100.294902
2045.000000	100.294121
2044.000000	100.292777
2043.000000	100.291649
2042.000000	100.291009
2041.000000	100.290544
2040.000000	100.289900
2039.000000	100.289229
2038.000000	100.289029
2037.000000	100.289458
2036.000000	100.290036
2035.000000	100.290145
2034.000000	100.289602
2033.000000	100.288632
2032.000000	100.287538
2031.000000	100.286610
2030.000000	100.286128
2029.000000	100.286161
2028.000000	100.286424
2027.000000	100.286543
2026.000000	100.286409
2025.000000	100.286123
2024.000000	100.285721
2023.000000	100.285193
2022.000000	100.284710
2021.000000	100.284535
2020.000000	100.284680
2019.000000	100.284855
2018.000000	100.284797
2017.000000	100.284451
2016.000000	100.283774
2015.000000	100.282595
2014.000000	100.280892
2013.000000	100.279120
2012.000000	100.278008
2011.000000	100.277921
2010.000000	100.278595
2009.000000	100.279394
2008.000000	100.279855
2007.000000	100.279938
2006.000000	100.279799
2005.000000	100.279549
2004.000000	100.279231
2003.000000	100.278910
2002.000000	100.278693
2001.000000	100.278652
2000.000000	100.278800
1999.000000	100.279140
1998.000000	100.279690
1997.000000	100.280385
1996.000000	100.280986
1995.000000	100.281217
1994.000000	100.281014
1993.000000	100.280647
1992.000000	100.280557
1991.000000	100.280964
1990.000000	100.281725
1989.000000	100.282508
1988.000000	100.283077
1987.000000	100.283415
1986.000000	100.283661
1985.000000	100.283985
1984.000000	100.284490
1983.000000	100.285175
1982.000000	100.285958
1981.000000	100.286729
1980.000000	100.287368
1979.000000	100.287764
1978.000000	100.287897
1977.000000	100.287950
1976.000000	100.288276
1975.000000	100.289121
1974.000000	100.290434
1973.000000	100.291901
1972.000000	100.293233
1971.000000	100.294388
1970.000000	100.295472
1969.000000	100.296492
1968.000000	100.297314
1967.000000	100.297859
1966.000000	100.298259
1965.000000	100.298746
1964.000000	100.299442
1963.000000	100.300356
1962.000000	100.301481
1961.000000	100.302817
1960.000000	100.304255
1959.000000	100.305564
1958.000000	100.306551
1957.000000	100.307183
1956.000000	100.307509
1955.000000	100.307484
1954.000000	100.307039
1953.000000	100.306384
1952.000000	100.306112
1951.000000	100.306771
1950.000000	100.308284
1949.000000	100.309915
1948.000000	100.310922
1947.000000	100.311233
1946.000000	100.311349
1945.000000	100.311664
1944.000000	100.312063
1943.000000	100.312245
1942.000000	100.312311
1941.000000	100.312772
1940.000000	100.313937
1939.000000	100.315465
1938.000000	100.316580
1937.000000	100.316791
1936.000000	100.316412
1935.000000	100.316303
1934.000000	100.316966
1933.000000	100.317967
1932.000000	100.318371
1931.000000	100.317734
1930.000000	100.316464
1929.000000	100.315252
1928.000000	100.314208
1927.000000	100.312815
1926.000000	100.310841
1925.000000	100.308956
1924.000000	100.308256
1923.000000	100.309049
1922.000000	100.310292
1921.000000	100.310546
1920.000000	100.309398
1919.000000	100.307645
1918.000000	100.306438
1917.000000	100.306144
1916.000000	100.306101
1915.000000	100.305526
1914.000000	100.304311
1913.000000	100.302990
1912.000000	100.302198
1911.000000	100.302159
1910.000000	100.302645
1909.000000	100.303298
1908.000000	100.303741
1907.000000	100.303399
1906.000000	100.301643
1905.000000	100.298351
1904.000000	100.294389
1903.000000	100.291071
1902.000000	100.289186
1901.000000	100.288689
1900.000000	100.288958
1899.000000	100.289141
1898.000000	100.288535
1897.000000	100.286918
1896.000000	100.284559
1895.000000	100.281570
1894.000000	100.277653
1893.000000	100.273020
1892.000000	100.269138
1891.000000	100.267731
1890.000000	100.269023
1889.000000	100.271575
1888.000000	100.274288
1887.000000	100.277497
1886.000000	100.281187
1885.000000	100.283512
1884.000000	100.282524
1883.000000	100.278802
1882.000000	100.275023
1881.000000	100.273101
1880.000000	100.272615
1879.000000	100.272006
1878.000000	100.270341
1877.000000	100.267699
1876.000000	100.264908
1875.000000	100.263241
1874.000000	100.263458
1873.000000	100.264945
1872.000000	100.266424
1871.000000	100.267581
1870.000000	100.269389
1869.000000	100.272572
1868.000000	100.276436
1867.000000	100.280061
1866.000000	100.283715
1865.000000	100.287862
1864.000000	100.291886
1863.000000	100.294763
1862.000000	100.296186
1861.000000	100.296498
1860.000000	100.296230
1859.000000	100.296325
1858.000000	100.298180
1857.000000	100.302489
1856.000000	100.308204
1855.000000	100.313415
1854.000000	100.317165
1853.000000	100.319920
1852.000000	100.322518
1851.000000	100.325369
1850.000000	100.328933
1849.000000	100.333773
1848.000000	100.339843
1847.000000	100.346055
1846.000000	100.350816
1845.000000	100.352973
1844.000000	100.352960
1843.000000	100.352732
1842.000000	100.353644
1841.000000	100.355486
1840.000000	100.357315
1839.000000	100.358636
1838.000000	100.360019
1837.000000	100.362302
1836.000000	100.365447
1835.000000	100.368364
1834.000000	100.369785
1833.000000	100.369050
1832.000000	100.366331
1831.000000	100.362901
1830.000000	100.361119
1829.000000	100.362494
1828.000000	100.366159
1827.000000	100.370387
1826.000000	100.373904
1825.000000	100.375710
1824.000000	100.375506
1823.000000	100.374249
1822.000000	100.373477
1821.000000	100.373888
1820.000000	100.374744
1819.000000	100.374917
1818.000000	100.374338
1817.000000	100.374045
1816.000000	100.374909
1815.000000	100.376528
1814.000000	100.377703
1813.000000	100.377658
1812.000000	100.376691
1811.000000	100.375949
1810.000000	100.376100
1809.000000	100.376503
1808.000000	100.376145
1807.000000	100.375212
1806.000000	100.375288
1805.000000	100.377512
1804.000000	100.380738
1803.000000	100.382405
1802.000000	100.381689
1801.000000	100.380996
1800.000000	100.383026
1799.000000	100.387431
1798.000000	100.391521
1797.000000	100.393287
1796.000000	100.392282
1795.000000	100.388898
1794.000000	100.384488
1793.000000	100.382134
1792.000000	100.384982
1791.000000	100.392463
1790.000000	100.400910
1789.000000	100.408104
1788.000000	100.413663
1787.000000	100.417254
1786.000000	100.418727
1785.000000	100.419203
1784.000000	100.420441
1783.000000	100.423000
1782.000000	100.426620
1781.000000	100.431745
1780.000000	100.438427
1779.000000	100.444771
1778.000000	100.447979
1777.000000	100.447501
1776.000000	100.445712
1775.000000	100.445615
1774.000000	100.448799
1773.000000	100.455385
1772.000000	100.464509
1771.000000	100.473722
1770.000000	100.480510
1769.000000	100.485269
1768.000000	100.490652
1767.000000	100.498646
1766.000000	100.508187
1765.000000	100.516478
1764.000000	100.522810
1763.000000	100.530436
1762.000000	100.543712
1761.000000	100.561974
1760.000000	100.579695
1759.000000	100.594762
1758.000000	100.611357
1757.000000	100.635226
1756.000000	100.666652
1755.000000	100.700154
1754.000000	100.731434
1753.000000	100.759351
1752.000000	100.782594
1751.000000	100.800125
1750.000000	100.814916
1749.000000	100.831904
1748.000000	100.852365
1747.000000	100.873360
1746.000000	100.892181
1745.000000	100.908131
1744.000000	100.920699
1743.000000	100.929044
1742.000000	100.932547
1741.000000	100.930158
1740.000000	100.920050
1739.000000	100.902558
1738.000000	100.881162
1737.000000	100.858447
1736.000000	100.833607
1735.000000	100.805209
1734.000000	100.778061
1733.000000	100.758761
1732.000000	100.743579
1731.000000	100.727061
1730.000000	100.709481
1729.000000	100.694232
1728.000000	100.683531
1727.000000	100.675992
1726.000000	100.668300
1725.000000	100.657987
1724.000000	100.645689
1723.000000	100.635120
1722.000000	100.629058
1721.000000	100.626814
1720.000000	100.625951
1719.000000	100.625069
1718.000000	100.624374
1717.000000	100.623116
1716.000000	100.618449
1715.000000	100.609945
1714.000000	100.600926
1713.000000	100.594564
1712.000000	100.591503
1711.000000	100.590232
1710.000000	100.588788
1709.000000	100.586044
1708.000000	100.582006
1707.000000	100.577634
1706.000000	100.574093
1705.000000	100.571187
1704.000000	100.567090
1703.000000	100.560687
1702.000000	100.552902
1701.000000	100.546144
1700.000000	100.543846
1699.000000	100.544832
1698.000000	100.544155
1697.000000	100.541398
1696.000000	100.539223
1695.000000	100.539446
1694.000000	100.540503
1693.000000	100.539909
1692.000000	100.536587
1691.000000	100.530665
1690.000000	100.523689
1689.000000	100.517661
1688.000000	100.512894
1687.000000	100.508822
1686.000000	100.506552
1685.000000	100.509525
1684.000000	100.519240
1683.000000	100.528594
1682.000000	100.531659
1681.000000	100.531789
1680.000000	100.532132
1679.000000	100.532398
1678.000000	100.531417
1677.000000	100.529269
1676.000000	100.527557
1675.000000	100.528125
1674.000000	100.530869
1673.000000	100.534166
1672.000000	100.537396
1671.000000	100.540875
1670.000000	100.544307
1669.000000	100.546540
1668.000000	100.546572
1667.000000	100.545003
1666.000000	100.543484
1665.000000	100.543046
1664.000000	100.543441
1663.000000	100.543291
1662.000000	100.541590
1661.000000	100.539522
1660.000000	100.539411
1659.000000	100.542208
1658.000000	100.546397
1657.000000	100.549530
1656.000000	100.550665
1655.000000	100.551029
1654.000000	100.551835
1653.000000	100.551857
1652.000000	100.548685
1651.000000	100.542855
1650.000000	100.538324
1649.000000	100.536754
1648.000000	100.537852
1647.000000	100.540445
1646.000000	100.542887
1645.000000	100.543651
1644.000000	100.543062
1643.000000	100.542280
1642.000000	100.542027
1641.000000	100.542537
1640.000000	100.543294
1639.000000	100.543621
1638.000000	100.543323
1637.000000	100.542370
1636.000000	100.540640
1635.000000	100.538261
1634.000000	100.535608
1633.000000	100.533550
1632.000000	100.532902
1631.000000	100.533265
1630.000000	100.533771
1629.000000	100.534071
1628.000000	100.534651
1627.000000	100.536032
1626.000000	100.537906
1625.000000	100.539440
1624.000000	100.540250
1623.000000	100.541508
1622.000000	100.544648
1621.000000	100.549308
1620.000000	100.554214
1619.000000	100.558909
1618.000000	100.563861
1617.000000	100.569503
1616.000000	100.574758
1615.000000	100.577879
1614.000000	100.579625
1613.000000	100.581996
1612.000000	100.585165
1611.000000	100.587651
1610.000000	100.588626
1609.000000	100.589340
1608.000000	100.591955
1607.000000	100.597522
1606.000000	100.605048
1605.000000	100.612082
1604.000000	100.616411
1603.000000	100.618182
1602.000000	100.619863
1601.000000	100.623324
1600.000000	100.627752
1599.000000	100.631327
1598.000000	100.634163
1597.000000	100.638196
1596.000000	100.644365
1595.000000	100.651295
1594.000000	100.657300
1593.000000	100.662609
1592.000000	100.668393
1591.000000	100.674503
1590.000000	100.679658
1589.000000	100.683697
1588.000000	100.688234
1587.000000	100.694567
1586.000000	100.701726
1585.000000	100.707444
1584.000000	100.710781
1583.000000	100.713272
1582.000000	100.717561
1581.000000	100.724675
1580.000000	100.733066
1579.000000	100.740167
1578.000000	100.744362
1577.000000	100.746234
1576.000000	100.749483
1575.000000	100.756499
1574.000000	100.764435
1573.000000	100.770003
1572.000000	100.772416
1571.000000	100.773362
1570.000000	100.776483
1569.000000	100.782993
1568.000000	100.789180
1567.000000	100.793049
1566.000000	100.797677
1565.000000	100.806368
1564.000000	100.817928
1563.000000	100.827635
1562.000000	100.832407
1561.000000	100.832651
1560.000000	100.830445
1559.000000	100.831110
1558.000000	100.834925
1557.000000	100.833732
1556.000000	100.828970
1555.000000	100.824837
1554.000000	100.823096
1553.000000	100.823603
1552.000000	100.824706
1551.000000	100.825930
1550.000000	100.828218
1549.000000	100.831644
1548.000000	100.834428
1547.000000	100.835100
1546.000000	100.834470
1545.000000	100.834567
1544.000000	100.835588
1543.000000	100.834665
1542.000000	100.829267
1541.000000	100.820701
1540.000000	100.813854
1539.000000	100.809902
1538.000000	100.805306
1537.000000	100.799822
1536.000000	100.795206
1535.000000	100.792491
1534.000000	100.792074
1533.000000	100.792433
1532.000000	100.789805
1531.000000	100.782540
1530.000000	100.772644
1529.000000	100.763303
1528.000000	100.756796
1527.000000	100.752559
1526.000000	100.747837
1525.000000	100.740819
1524.000000	100.731925
1523.000000	100.722743
1522.000000	100.716118
1521.000000	100.715088
1520.000000	100.717936
1519.000000	100.719652
1518.000000	100.717192
1517.000000	100.709787
1516.000000	100.699312
1515.000000	100.688923
1514.000000	100.680528
1513.000000	100.674467
1512.000000	100.670404
1511.000000	100.668242
1510.000000	100.667834
1509.000000	100.668847
1508.000000	100.669914
1507.000000	100.669817
1506.000000	100.669507
1505.000000	100.670033
1504.000000	100.671362
1503.000000	100.671775
1502.000000	100.669802
1501.000000	100.665827
1500.000000	100.661027
1499.000000	100.655377
1498.000000	100.648304
1497.000000	100.642292
1496.000000	100.642834
1495.000000	100.650863
1494.000000	100.660458
1493.000000	100.665234
1492.000000	100.662514
1491.000000	100.654664
1490.000000	100.648433
1489.000000	100.648440
1488.000000	100.652589
1487.000000	100.657456
1486.000000	100.663028
1485.000000	100.671148
1484.000000	100.682057
1483.000000	100.693947
1482.000000	100.704985
1481.000000	100.713985
1480.000000	100.720375
1479.000000	100.724642
1478.000000	100.729234
1477.000000	100.737725
1476.000000	100.752174
1475.000000	100.772115
1474.000000	100.797708
1473.000000	100.830511
1472.000000	100.867064
1471.000000	100.899068
1470.000000	100.923026
1469.000000	100.941239
1468.000000	100.956237
1467.000000	100.968682
1466.000000	100.977234
1465.000000	100.980196
1464.000000	100.978354
1463.000000	100.975154
1462.000000	100.972903
1461.000000	100.970863
1460.000000	100.967538
1459.000000	100.963432
1458.000000	100.961791
1457.000000	100.963940
1456.000000	100.964158
1455.000000	100.957064
1454.000000	100.943997
1453.000000	100.928620
1452.000000	100.915784
1451.000000	100.910295
1450.000000	100.912985
1449.000000	100.919219
1448.000000	100.922110
1447.000000	100.918245
1446.000000	100.910390
1445.000000	100.903864
1444.000000	100.901452
1443.000000	100.902069
1442.000000	100.902098
1441.000000	100.898953
1440.000000	100.893545
1439.000000	100.888825
1438.000000	100.886027
1437.000000	100.882636
1436.000000	100.876054
1435.000000	100.868205
1434.000000	100.862709
1433.000000	100.860387
1432.000000	100.859749
1431.000000	100.859035
1430.000000	100.857489
1429.000000	100.855096
1428.000000	100.852077
1427.000000	100.848625
1426.000000	100.844878
1425.000000	100.841184
1424.000000	100.838326
1423.000000	100.837515
1422.000000	100.839432
1421.000000	100.843720
1420.000000	100.848684
1419.000000	100.852138
1418.000000	100.853778
1417.000000	100.855408
1416.000000	100.858504
1415.000000	100.862366
1414.000000	100.865163
1413.000000	100.866053
1412.000000	100.865731
1411.000000	100.865076
1410.000000	100.863889
1409.000000	100.861513
1408.000000	100.858672
1407.000000	100.857559
1406.000000	100.859713
1405.000000	100.864022
1404.000000	100.867415
1403.000000	100.868602
1402.000000	100.869506
1401.000000	100.872602
1400.000000	100.878229
1399.000000	100.884262
1398.000000	100.888477
1397.000000	100.890880
1396.000000	100.892862
1395.000000	100.895263
1394.000000	100.898048
1393.000000	100.900772
1392.000000	100.902926
1391.000000	100.904474
1390.000000	100.906477
1389.000000	100.910919
1388.000000	100.918971
1387.000000	100.929129
1386.000000	100.938407
1385.000000	100.945466
1384.000000	100.950525
1383.000000	100.953444
1382.000000	100.953918
1381.000000	100.952876
1380.000000	100.952326
1379.000000	100.953648
1378.000000	100.956748
1377.000000	100.960599
1376.000000	100.963932
1375.000000	100.965551
1374.000000	100.965143
1373.000000	100.963844
1372.000000	100.963162
1371.000000	100.963604
1370.000000	100.964885
1369.000000	100.966697
1368.000000	100.968324
1367.000000	100.968374
1366.000000	100.966094
1365.000000	100.962763
1364.000000	100.961038
1363.000000	100.962335
1362.000000	100.965058
1361.000000	100.966656
1360.000000	100.966728
1359.000000	100.966654
1358.000000	100.967528
1357.000000	100.969410
1356.000000	100.971717
1355.000000	100.973620
1354.000000	100.974289
1353.000000	100.973326
1352.000000	100.971069
1351.000000	100.968328
1350.000000	100.965954
1349.000000	100.964680
1348.000000	100.964900
1347.000000	100.966324
1346.000000	100.967929
1345.000000	100.968630
1344.000000	100.968032
1343.000000	100.966455
1342.000000	100.964481
1341.000000	100.962804
1340.000000	100.962273
1339.000000	100.963446
1338.000000	100.965948
1337.000000	100.968544
1336.000000	100.970054
1335.000000	100.970126
1334.000000	100.969219
1333.000000	100.968168
1332.000000	100.967632
1331.000000	100.967754
1330.000000	100.968176
1329.000000	100.968357
1328.000000	100.967984
1327.000000	100.967170
1326.000000	100.966363
1325.000000	100.966121
1324.000000	100.966852
1323.000000	100.968579
1322.000000	100.970828
1321.000000	100.972777
1320.000000	100.973614
1319.000000	100.972893
1318.000000	100.970860
1317.000000	100.968592
1316.000000	100.967502
1315.000000	100.968286
1314.000000	100.970229
1313.000000	100.971701
1312.000000	100.971655
1311.000000	100.970494
1310.000000	100.969376
1309.000000	100.968890
1308.000000	100.968657
1307.000000	100.968104
1306.000000	100.967428
1305.000000	100.967601
1304.000000	100.969218
1303.000000	100.971429
1302.000000	100.972506
1301.000000	100.971790
1300.000000	100.970585
1299.000000	100.970571
1298.000000	100.971763
1297.000000	100.972889
1296.000000	100.973255
1295.000000	100.973001
1294.000000	100.971859
1293.000000	100.969431
1292.000000	100.966965
1291.000000	100.966920
1290.000000	100.969802
1289.000000	100.972829
1288.000000	100.972871
1287.000000	100.969644
1286.000000	100.965050
1285.000000	100.960510
1284.000000	100.956294
1283.000000	100.952544
1282.000000	100.949531
1281.000000	100.947489
1280.000000	100.947160
1279.000000	100.949364
1278.000000	100.952758
1277.000000	100.953437
1276.000000	100.948867
1275.000000	100.941508
1274.000000	100.936467
1273.000000	100.935893
1272.000000	100.937748
1271.000000	100.939928
1270.000000	100.943236
1269.000000	100.949479
1268.000000	100.958365
1267.000000	100.967314
1266.000000	100.973550
1265.000000	100.975968
1264.000000	100.975670
1263.000000	100.974929
1262.000000	100.974853
1261.000000	100.974047
1260.000000	100.970337
1259.000000	100.963543
1258.000000	100.955570
1257.000000	100.948145
1256.000000	100.941727
1255.000000	100.936203
1254.000000	100.931095
1253.000000	100.925413
1252.000000	100.918933
1251.000000	100.913335
1250.000000	100.910173
1249.000000	100.907849
1248.000000	100.902906
1247.000000	100.894675
1246.000000	100.886314
1245.000000	100.880300
1244.000000	100.875170
1243.000000	100.868285
1242.000000	100.859853
1241.000000	100.851907
1240.000000	100.844261
1239.000000	100.833951
1238.000000	100.819017
1237.000000	100.801246
1236.000000	100.784485
1235.000000	100.770883
1234.000000	100.759214
1233.000000	100.746516
1232.000000	100.730720
1231.000000	100.711477
1230.000000	100.689234
1229.000000	100.664843
1228.000000	100.640262
1227.000000	100.617745
1226.000000	100.596499
1225.000000	100.571362
1224.000000	100.537392
1223.000000	100.495655
1222.000000	100.452131
1221.000000	100.410209
1220.000000	100.366630
1219.000000	100.316241
1218.000000	100.258644
1217.000000	100.198374
1216.000000	100.139711
1215.000000	100.083223
1214.000000	100.027013
1213.000000	99.969614
1212.000000	99.911014
1211.000000	99.851452
1210.000000	99.790109
1209.000000	99.725837
1208.000000	99.659413
1207.000000	99.594110
1206.000000	99.532874
1205.000000	99.475298
1204.000000	99.418557
1203.000000	99.361113
1202.000000	99.304305
1201.000000	99.250015
1200.000000	99.197660
1199.000000	99.144348
1198.000000	99.088068
1197.000000	99.030063
1196.000000	98.973339
1195.000000	98.918922
1194.000000	98.864537
1193.000000	98.807436
1192.000000	98.747483
1191.000000	98.686589
1190.000000	98.626158
1189.000000	98.566408
1188.000000	98.507346
1187.000000	98.448700
1186.000000	98.389261
1185.000000	98.327822
1184.000000	98.264500
1183.000000	98.200039
1182.000000	98.134548
1181.000000	98.068009
1180.000000	98.000773
1179.000000	97.932203
1178.000000	97.860647
1177.000000	97.786617
1176.000000	97.713576
1175.000000	97.642658
1174.000000	97.569194
1173.000000	97.488689
1172.000000	97.404128
1171.000000	97.322213
1170.000000	97.243859
1169.000000	97.164416
1168.000000	97.083031
1167.000000	97.005649
1166.000000	96.938368
1165.000000	96.884507
1164.000000	96.849685
1163.000000	96.842573
1162.000000	96.866209
1161.000000	96.911749
1160.000000	96.962871
1159.000000	97.003967
1158.000000	97.024369
1157.000000	97.019913
1156.000000	96.993415
1155.000000	96.951493
1154.000000	96.899064
1153.000000	96.837812
1152.000000	96.769216
1151.000000	96.695788
1150.000000	96.619403
1149.000000	96.542108
1148.000000	96.468572
1147.000000	96.403402
1146.000000	96.345396
1145.000000	96.288487
1144.000000	96.228621
1143.000000	96.165530
1142.000000	96.098327
1141.000000	96.024983
1140.000000	95.946875
1139.000000	95.868513
1138.000000	95.791589
1137.000000	95.714173
1136.000000	95.636423
1135.000000	95.561337
1134.000000	95.488719
1133.000000	95.414346
1132.000000	95.336857
1131.000000	95.259953
1130.000000	95.186024
1129.000000	95.113143
1128.000000	95.040291
1127.000000	94.969977
1126.000000	94.903374
1125.000000	94.837907
1124.000000	94.771800
1123.000000	94.706425
1122.000000	94.642472
1121.000000	94.578097
1120.000000	94.511793
1119.000000	94.442858
1118.000000	94.369382
1117.000000	94.291046
1116.000000	94.213090
1115.000000	94.141273
1114.000000	94.073775
1113.000000	94.005084
1112.000000	93.936101
1111.000000	93.871634
1110.000000	93.809686
1109.000000	93.743583
1108.000000	93.674291
1107.000000	93.609592
1106.000000	93.550251
1105.000000	93.488303
1104.000000	93.421078
1103.000000	93.355982
1102.000000	93.298213
1101.000000	93.243755
1100.000000	93.187970
1099.000000	93.132299
1098.000000	93.079283
1097.000000	93.028819
1096.000000	92.981579
1095.000000	92.938941
1094.000000	92.898931
1093.000000	92.859909
1092.000000	92.826977
1091.000000	92.805171
1090.000000	92.787953
1089.000000	92.764100
1088.000000	92.735089
1087.000000	92.712742
1086.000000	92.699882
1085.000000	92.687338
1084.000000	92.671381
1083.000000	92.659357
1082.000000	92.654596
1081.000000	92.649536
1080.000000	92.638277
1079.000000	92.623306
1078.000000	92.605598
1077.000000	92.580498
1076.000000	92.548093
1075.000000	92.515102
1074.000000	92.480605
1073.000000	92.431428
1072.000000	92.357937
1071.000000	92.264428
1070.000000	92.158910
1069.000000	92.042103
1068.000000	91.912249
1067.000000	91.771750
1066.000000	91.623006
1065.000000	91.465332
1064.000000	91.300838
1063.000000	91.136173
1062.000000	90.975359
1061.000000	90.818897
1060.000000	90.671253
1059.000000	90.538486
1058.000000	90.416515
1057.000000	90.293406
1056.000000	90.165769
1055.000000	90.041075
1054.000000	89.921674
1053.000000	89.800220
1052.000000	89.675059
1051.000000	89.555161
1050.000000	89.442833
1049.000000	89.326773
1048.000000	89.200056
1047.000000	89.070026
1046.000000	88.943818
1045.000000	88.818577
1044.000000	88.691270
1043.000000	88.564666
1042.000000	88.438625
1041.000000	88.308051
1040.000000	88.174553
1039.000000	88.048103
1038.000000	87.932660
1037.000000	87.822614
1036.000000	87.717221
1035.000000	87.624604
1034.000000	87.546373
1033.000000	87.472392
1032.000000	87.396717
1031.000000	87.325573
1030.000000	87.263607
1029.000000	87.205528
1028.000000	87.147648
1027.000000	87.095249
1026.000000	87.051923
1025.000000	87.012860
1024.000000	86.973739
1023.000000	86.934889
1022.000000	86.892719
1021.000000	86.839745
1020.000000	86.777787
1019.000000	86.718728
1018.000000	86.667543
1017.000000	86.616649
1016.000000	86.560854
1015.000000	86.504744
1014.000000	86.450784
1013.000000	86.393503
1012.000000	86.330990
1011.000000	86.270029
1010.000000	86.214709
1009.000000	86.161445
1008.000000	86.109373
1007.000000	86.063672
1006.000000	86.024366
1005.000000	85.983717
1004.000000	85.938986
1003.000000	85.896736
1002.000000	85.861339
1001.000000	85.830673
1000.000000	85.805321
999.000000	85.789302
998.000000	85.778944
997.000000	85.763983
996.000000	85.742945
995.000000	85.725133
994.000000	85.715080
993.000000	85.708112
992.000000	85.703299
991.000000	85.706625
990.000000	85.718124
989.000000	85.729833
988.000000	85.740043
987.000000	85.756185
986.000000	85.780581
985.000000	85.807528
984.000000	85.837910
983.000000	85.882228
982.000000	85.944702
981.000000	86.018157
980.000000	86.098956
979.000000	86.193568
978.000000	86.305860
977.000000	86.431040
976.000000	86.566331
975.000000	86.714456
974.000000	86.872191
973.000000	87.029024
972.000000	87.182782
971.000000	87.344334
970.000000	87.520800
969.000000	87.704962
968.000000	87.886553
967.000000	88.063910
966.000000	88.239346
965.000000	88.412610
964.000000	88.584412
963.000000	88.758423
962.000000	88.935142
961.000000	89.110128
960.000000	89.280481
959.000000	89.445975
958.000000	89.603102
957.000000	89.747007
956.000000	89.881196
955.000000	90.016454
954.000000	90.157407
953.000000	90.297912
952.000000	90.431288
951.000000	90.556447
950.000000	90.672494
949.000000	90.776494
948.000000	90.869292
947.000000	90.955546
946.000000	91.035811
945.000000	91.106703
944.000000	91.170773
943.000000	91.237304
942.000000	91.310135
941.000000	91.382886
940.000000	91.449651
939.000000	91.512640
938.000000	91.576154
937.000000	91.640483
936.000000	91.705272
935.000000	91.772119
934.000000	91.840778
933.000000	91.909147
932.000000	91.979125
931.000000	92.055499
930.000000	92.136702
929.000000	92.213586
928.000000	92.279983
927.000000	92.338579
926.000000	92.395052
925.000000	92.453242
924.000000	92.517477
923.000000	92.591442
922.000000	92.671183
921.000000	92.745835
920.000000	92.808894
919.000000	92.863950
918.000000	92.917583
917.000000	92.972229
916.000000	93.027670
915.000000	93.083387
914.000000	93.137576
913.000000	93.190006
912.000000	93.247915
911.000000	93.322772
910.000000	93.418233
909.000000	93.525878
908.000000	93.634667
907.000000	93.741065
906.000000	93.849894
905.000000	93.970375
904.000000	94.111340
903.000000	94.274214
902.000000	94.449260
901.000000	94.623093
900.000000	94.789783
899.000000	94.950862
898.000000	95.107821
897.000000	95.260813
896.000000	95.411536
895.000000	95.559446
894.000000	95.697107
893.000000	95.818173
892.000000	95.929544
891.000000	96.046748
890.000000	96.175393
889.000000	96.304662
888.000000	96.421202
887.000000	96.522408
886.000000	96.613948
885.000000	96.700948
884.000000	96.785230
883.000000	96.866927
882.000000	96.946214
881.000000	97.026841
880.000000	97.118284
879.000000	97.228592
878.000000	97.353162
877.000000	97.475912
876.000000	97.583800
875.000000	97.676531
874.000000	97.762566
873.000000	97.851210
872.000000	97.948782
871.000000	98.055720
870.000000	98.164947
869.000000	98.268009
868.000000	98.364783
867.000000	98.463078
866.000000	98.567047
865.000000	98.669959
864.000000	98.760727
863.000000	98.834990
862.000000	98.898732
861.000000	98.963337
860.000000	99.037580
859.000000	99.121580
858.000000	99.207089
857.000000	99.285028
856.000000	99.352615
855.000000	99.412081
854.000000	99.464819
853.000000	99.510575
852.000000	99.551454
851.000000	99.592080
850.000000	99.634740
849.000000	99.677473
848.000000	99.717100
847.000000	99.750582
846.000000	99.773263
845.000000	99.780374
844.000000	99.772591
843.000000	99.757388
842.000000	99.742430
841.000000	99.728352
840.000000	99.708428
839.000000	99.673823
838.000000	99.619762
837.000000	99.549987
836.000000	99.476853
835.000000	99.415243
834.000000	99.374197
833.000000	99.353546
832.000000	99.346881
831.000000	99.346012
830.000000	99.345258
829.000000	99.345737
828.000000	99.354154
827.000000	99.372975
826.000000	99.393321
825.000000	99.403739
824.000000	99.405004
823.000000	99.408349
822.000000	99.418788
821.000000	99.428625
820.000000	99.428574
819.000000	99.417156
818.000000	99.396563
817.000000	99.365007
816.000000	99.316479
815.000000	99.245731
814.000000	99.151301
813.000000	99.033709
812.000000	98.889900
811.000000	98.708177
810.000000	98.471221
809.000000	98.168723
808.000000	97.807352
807.000000	97.405450
806.000000	96.979204
805.000000	96.539353
804.000000	96.100327
803.000000	95.683112
802.000000	95.305967
801.000000	94.980790
800.000000	94.721396
799.000000	94.544520
798.000000	94.456621
797.000000	94.447766
796.000000	94.501993
795.000000	94.604227
794.000000	94.734210
793.000000	94.866099
792.000000	94.982088
791.000000	95.079551
790.000000	95.159035
789.000000	95.211562
788.000000	95.224006
787.000000	95.192569
786.000000	95.124362
785.000000	95.027376
784.000000	94.904230
783.000000	94.756320
782.000000	94.592140
781.000000	94.431840
780.000000	94.303175
779.000000	94.229314
778.000000	94.218760
777.000000	94.268410
776.000000	94.373132
775.000000	94.525800
774.000000	94.709979
773.000000	94.902003
772.000000	95.083185
771.000000	95.245890
770.000000	95.388376
769.000000	95.509424
768.000000	95.608448
767.000000	95.686232
766.000000	95.744939
765.000000	95.790526
764.000000	95.833400
763.000000	95.881368
762.000000	95.932541
761.000000	95.980805
760.000000	96.028123
759.000000	96.085427
758.000000	96.160209
757.000000	96.248064
756.000000	96.337441
755.000000	96.418595
754.000000	96.487849
753.000000	96.547859
752.000000	96.605236
751.000000	96.665137
750.000000	96.727254
749.000000	96.788415
748.000000	96.847979
747.000000	96.908796
746.000000	96.974983
745.000000	97.051360
744.000000	97.142415
743.000000	97.248202
742.000000	97.363090
741.000000	97.481230
740.000000	97.600584
739.000000	97.719672
738.000000	97.834986
737.000000	97.944833
736.000000	98.050460
735.000000	98.149684
734.000000	98.236023
733.000000	98.308723
732.000000	98.376244
731.000000	98.443233
730.000000	98.501137
729.000000	98.540502
728.000000	98.566713
727.000000	98.593434
726.000000	98.624753
725.000000	98.655036
724.000000	98.684166
723.000000	98.721422
722.000000	98.773536
721.000000	98.837787
720.000000	98.907429
719.000000	98.976013
718.000000	99.036486
717.000000	99.084606
716.000000	99.124509
715.000000	99.163748
714.000000	99.201785
713.000000	99.230698
712.000000	99.248664
711.000000	99.264922
710.000000	99.288175
709.000000	99.315779
708.000000	99.337239
707.000000	99.343756
706.000000	99.332026
705.000000	99.302704
704.000000	99.257290
703.000000	99.193977
702.000000	99.105373
701.000000	98.981456
700.000000	98.814248
699.000000	98.601088
698.000000	98.352293
697.000000	98.102404
696.000000	97.905193
695.000000	97.803509
694.000000	97.802846
693.000000	97.877004
692.000000	97.993268
691.000000	98.126424
690.000000	98.257900
689.000000	98.377968
688.000000	98.489756
687.000000	98.599314
686.000000	98.701357
685.000000	98.785185
684.000000	98.851607
683.000000	98.910557
682.000000	98.963888
681.000000	99.005035
680.000000	99.036923
679.000000	99.075402
678.000000	99.129867
677.000000	99.192025
676.000000	99.249257
675.000000	99.298238
674.000000	99.341484
673.000000	99.381123
672.000000	99.421165
671.000000	99.468301
670.000000	99.525960
669.000000	99.589165
668.000000	99.642110
667.000000	99.675475
666.000000	99.699952
665.000000	99.724573
664.000000	99.751028
663.000000	99.781165
662.000000	99.812226
661.000000	99.837504
660.000000	99.855556
659.000000	99.870041
658.000000	99.876677
657.000000	99.861020
656.000000	99.816040
655.000000	99.755067
654.000000	99.702373
653.000000	99.676733
652.000000	99.688020
651.000000	99.734184
650.000000	99.793695
649.000000	99.837389
648.000000	99.857245
647.000000	99.874848
646.000000	99.915082
645.000000	99.980572
644.000000	100.058485
643.000000	100.136840
642.000000	100.205964
641.000000	100.258202
640.000000	100.294907
639.000000	100.329752
638.000000	100.377306
637.000000	100.438255
636.000000	100.500504
635.000000	100.552161
634.000000	100.590673
633.000000	100.620740
632.000000	100.645460
631.000000	100.662594
630.000000	100.671792
629.000000	100.683251
628.000000	100.711485
627.000000	100.755713
626.000000	100.793620
625.000000	100.806877
624.000000	100.809041
623.000000	100.833856
622.000000	100.894424
621.000000	100.968074
620.000000	101.024156
619.000000	101.051648
618.000000	101.056314
617.000000	101.042679
616.000000	101.008461
615.000000	100.956322
614.000000	100.904386
613.000000	100.880153
612.000000	100.899641
611.000000	100.946508
610.000000	100.976480
609.000000	100.956761
608.000000	100.896403
607.000000	100.832091
606.000000	100.792647
605.000000	100.790231
604.000000	100.837790
603.000000	100.942352
602.000000	101.071521
601.000000	101.156740
600.000000	101.149093
599.000000	101.059779
598.000000	100.944967
597.000000	100.851374
596.000000	100.788108
595.000000	100.744386
594.000000	100.711411
593.000000	100.690991
592.000000	100.695130
591.000000	100.731568
590.000000	100.784545
589.000000	100.826833
588.000000	100.855458
587.000000	100.893438
586.000000	100.947373
585.000000	100.985496
584.000000	100.978632
583.000000	100.946029
582.000000	100.937159
581.000000	100.973795
580.000000	101.032772
579.000000	101.077266
578.000000	101.083086
577.000000	101.044299
576.000000	100.977282
575.000000	100.918695
574.000000	100.896070
573.000000	100.904256
572.000000	100.929172
571.000000	100.975868
570.000000	101.053344
569.000000	101.147707
568.000000	101.227775
567.000000	101.264237
566.000000	101.238488
565.000000	101.153232
564.000000	101.045977
563.000000	100.975920
562.000000	100.968933
561.000000	100.991992
560.000000	101.003429
559.000000	100.993090
558.000000	100.956277
557.000000	100.876064
556.000000	100.763453
555.000000	100.681136
554.000000	100.683058
553.000000	100.754395
552.000000	100.838407
551.000000	100.890007
550.000000	100.891374
