PE IR       SUBTECH     SPECTRUM    ASCII       PEDS        4.00        
   -1
BH1 8-7 25 0_1.asc
24/05/14
13:13:45.00
24/05/14
13:14:55.00
Administrator
?品 046 用? Administrator 日期 Tuesday, May 14 2024
550.000000
#HDR
-1
-1
#GR
cm-1
%T
1.0
0.0
4000.000000
-1.000000
3451
8
98.792743
85.516546
#DATA
4000.000000	98.667122
3999.000000	98.666428
3998.000000	98.665924
3997.000000	98.665712
3996.000000	98.665549
3995.000000	98.665049
3994.000000	98.664075
3993.000000	98.662741
3992.000000	98.661418
3991.000000	98.660369
3990.000000	98.659645
3989.000000	98.659153
3988.000000	98.658758
3987.000000	98.658360
3986.000000	98.657901
3985.000000	98.657363
3984.000000	98.656761
3983.000000	98.656124
3982.000000	98.655471
3981.000000	98.654839
3980.000000	98.654315
3979.000000	98.653986
3978.000000	98.653812
3977.000000	98.653625
3976.000000	98.653257
3975.000000	98.652674
3974.000000	98.651994
3973.000000	98.651356
3972.000000	98.650825
3971.000000	98.650411
3970.000000	98.650092
3969.000000	98.649827
3968.000000	98.649572
3967.000000	98.649314
3966.000000	98.649088
3965.000000	98.648931
3964.000000	98.648808
3963.000000	98.648603
3962.000000	98.648221
3961.000000	98.647683
3960.000000	98.647102
3959.000000	98.646599
3958.000000	98.646196
3957.000000	98.645842
3956.000000	98.645462
3955.000000	98.645025
3954.000000	98.644558
3953.000000	98.644122
3952.000000	98.643764
3951.000000	98.643486
3950.000000	98.643253
3949.000000	98.643016
3948.000000	98.642744
3947.000000	98.642425
3946.000000	98.642065
3945.000000	98.641678
3944.000000	98.641287
3943.000000	98.640912
3942.000000	98.640569
3941.000000	98.640267
3940.000000	98.640012
3939.000000	98.639792
3938.000000	98.639571
3937.000000	98.639291
3936.000000	98.638911
3935.000000	98.638428
3934.000000	98.637917
3933.000000	98.637493
3932.000000	98.637231
3931.000000	98.637114
3930.000000	98.637013
3929.000000	98.636784
3928.000000	98.636367
3927.000000	98.635819
3926.000000	98.635250
3925.000000	98.634694
3924.000000	98.634069
3923.000000	98.633316
3922.000000	98.632539
3921.000000	98.631925
3920.000000	98.631568
3919.000000	98.631401
3918.000000	98.631289
3917.000000	98.631143
3916.000000	98.630922
3915.000000	98.630605
3914.000000	98.630218
3913.000000	98.629821
3912.000000	98.629452
3911.000000	98.629098
3910.000000	98.628725
3909.000000	98.628316
3908.000000	98.627873
3907.000000	98.627426
3906.000000	98.627018
3905.000000	98.626689
3904.000000	98.626435
3903.000000	98.626208
3902.000000	98.625958
3901.000000	98.625678
3900.000000	98.625390
3899.000000	98.625115
3898.000000	98.624864
3897.000000	98.624635
3896.000000	98.624428
3895.000000	98.624250
3894.000000	98.624112
3893.000000	98.624018
3892.000000	98.623961
3891.000000	98.623924
3890.000000	98.623896
3889.000000	98.623862
3888.000000	98.623820
3887.000000	98.623776
3886.000000	98.623738
3885.000000	98.623704
3884.000000	98.623663
3883.000000	98.623610
3882.000000	98.623549
3881.000000	98.623490
3880.000000	98.623437
3879.000000	98.623381
3878.000000	98.623309
3877.000000	98.623211
3876.000000	98.623091
3875.000000	98.622963
3874.000000	98.622839
3873.000000	98.622723
3872.000000	98.622615
3871.000000	98.622513
3870.000000	98.622430
3869.000000	98.622374
3868.000000	98.622295
3867.000000	98.622145
3866.000000	98.621977
3865.000000	98.621888
3864.000000	98.621842
3863.000000	98.621699
3862.000000	98.621425
3861.000000	98.621091
3860.000000	98.620756
3859.000000	98.620437
3858.000000	98.620122
3857.000000	98.619748
3856.000000	98.619275
3855.000000	98.618940
3854.000000	98.619084
3853.000000	98.619424
3852.000000	98.619298
3851.000000	98.618545
3850.000000	98.617547
3849.000000	98.616714
3848.000000	98.616055
3847.000000	98.615334
3846.000000	98.614467
3845.000000	98.613605
3844.000000	98.612960
3843.000000	98.612571
3842.000000	98.612270
3841.000000	98.611865
3840.000000	98.611414
3839.000000	98.611095
3838.000000	98.610968
3837.000000	98.610971
3836.000000	98.611039
3835.000000	98.611171
3834.000000	98.611370
3833.000000	98.611612
3832.000000	98.611859
3831.000000	98.612006
3830.000000	98.611937
3829.000000	98.611650
3828.000000	98.611321
3827.000000	98.611184
3826.000000	98.611286
3825.000000	98.611406
3824.000000	98.611306
3823.000000	98.611005
3822.000000	98.610808
3821.000000	98.610944
3820.000000	98.611324
3819.000000	98.611695
3818.000000	98.611913
3817.000000	98.612047
3816.000000	98.612198
3815.000000	98.612335
3814.000000	98.612387
3813.000000	98.612401
3812.000000	98.612467
3811.000000	98.612588
3810.000000	98.612676
3809.000000	98.612687
3808.000000	98.612678
3807.000000	98.612732
3806.000000	98.612834
3805.000000	98.612875
3804.000000	98.612777
3803.000000	98.612572
3802.000000	98.612380
3801.000000	98.612232
3800.000000	98.612025
3799.000000	98.611698
3798.000000	98.611290
3797.000000	98.610897
3796.000000	98.610575
3795.000000	98.610312
3794.000000	98.610037
3793.000000	98.609690
3792.000000	98.609246
3791.000000	98.608712
3790.000000	98.608124
3789.000000	98.607556
3788.000000	98.607074
3787.000000	98.606692
3786.000000	98.606391
3785.000000	98.606143
3784.000000	98.605834
3783.000000	98.605242
3782.000000	98.604219
3781.000000	98.602903
3780.000000	98.601693
3779.000000	98.600828
3778.000000	98.600169
3777.000000	98.599398
3776.000000	98.598481
3775.000000	98.597692
3774.000000	98.597108
3773.000000	98.596478
3772.000000	98.595683
3771.000000	98.594950
3770.000000	98.594449
3769.000000	98.593912
3768.000000	98.592915
3767.000000	98.591438
3766.000000	98.589951
3765.000000	98.588818
3764.000000	98.587857
3763.000000	98.586834
3762.000000	98.586187
3761.000000	98.586553
3760.000000	98.587660
3759.000000	98.588335
3758.000000	98.587998
3757.000000	98.587137
3756.000000	98.586310
3755.000000	98.585539
3754.000000	98.584587
3753.000000	98.583293
3752.000000	98.581461
3751.000000	98.579209
3750.000000	98.577460
3749.000000	98.576761
3748.000000	98.576292
3747.000000	98.575006
3746.000000	98.573199
3745.000000	98.572511
3744.000000	98.573207
3743.000000	98.573314
3742.000000	98.571845
3741.000000	98.569797
3740.000000	98.568134
3739.000000	98.566499
3738.000000	98.564100
3737.000000	98.560898
3736.000000	98.557179
3735.000000	98.553057
3734.000000	98.549215
3733.000000	98.547101
3732.000000	98.547503
3731.000000	98.549530
3730.000000	98.551147
3729.000000	98.550928
3728.000000	98.548743
3727.000000	98.545267
3726.000000	98.541123
3725.000000	98.536723
3724.000000	98.532645
3723.000000	98.529370
3722.000000	98.526759
3721.000000	98.524150
3720.000000	98.521105
3719.000000	98.517790
3718.000000	98.514719
3717.000000	98.512066
3716.000000	98.509419
3715.000000	98.506528
3714.000000	98.503764
3713.000000	98.501395
3712.000000	98.498692
3711.000000	98.494823
3710.000000	98.490505
3709.000000	98.487196
3708.000000	98.485185
3707.000000	98.483371
3706.000000	98.480402
3705.000000	98.475907
3704.000000	98.470714
3703.000000	98.465941
3702.000000	98.461858
3701.000000	98.457738
3700.000000	98.452778
3699.000000	98.447103
3698.000000	98.442053
3697.000000	98.439212
3696.000000	98.438723
3695.000000	98.439221
3694.000000	98.439502
3693.000000	98.439329
3692.000000	98.438446
3691.000000	98.435618
3690.000000	98.429981
3689.000000	98.423227
3688.000000	98.418199
3687.000000	98.415379
3686.000000	98.413443
3685.000000	98.411697
3684.000000	98.410036
3683.000000	98.407931
3682.000000	98.404727
3681.000000	98.400871
3680.000000	98.397097
3679.000000	98.392571
3678.000000	98.385560
3677.000000	98.376621
3676.000000	98.368987
3675.000000	98.364259
3674.000000	98.360532
3673.000000	98.355314
3672.000000	98.348712
3671.000000	98.343113
3670.000000	98.339875
3669.000000	98.337562
3668.000000	98.334275
3667.000000	98.329553
3666.000000	98.323900
3665.000000	98.318027
3664.000000	98.312374
3663.000000	98.307069
3662.000000	98.302284
3661.000000	98.298289
3660.000000	98.294561
3659.000000	98.289754
3658.000000	98.282938
3657.000000	98.275253
3656.000000	98.268738
3655.000000	98.263402
3654.000000	98.257529
3653.000000	98.250761
3652.000000	98.245223
3651.000000	98.242145
3650.000000	98.237925
3649.000000	98.228715
3648.000000	98.218086
3647.000000	98.212420
3646.000000	98.212308
3645.000000	98.213096
3644.000000	98.210582
3643.000000	98.204366
3642.000000	98.196796
3641.000000	98.189880
3640.000000	98.183931
3639.000000	98.178490
3638.000000	98.172554
3637.000000	98.164647
3636.000000	98.154534
3635.000000	98.145101
3634.000000	98.139979
3633.000000	98.139021
3632.000000	98.138450
3631.000000	98.135948
3630.000000	98.133452
3629.000000	98.131836
3628.000000	98.127869
3627.000000	98.119111
3626.000000	98.107675
3625.000000	98.098122
3624.000000	98.093106
3623.000000	98.091823
3622.000000	98.092625
3621.000000	98.095700
3620.000000	98.101808
3619.000000	98.109760
3618.000000	98.117125
3617.000000	98.122038
3616.000000	98.124166
3615.000000	98.125465
3614.000000	98.128975
3613.000000	98.135835
3612.000000	98.143969
3611.000000	98.150148
3610.000000	98.152939
3609.000000	98.152942
3608.000000	98.151198
3607.000000	98.148675
3606.000000	98.146794
3605.000000	98.146941
3604.000000	98.149211
3603.000000	98.151970
3602.000000	98.152835
3601.000000	98.150802
3600.000000	98.147156
3599.000000	98.144679
3598.000000	98.145434
3597.000000	98.149106
3596.000000	98.153386
3595.000000	98.156637
3594.000000	98.159275
3593.000000	98.162339
3592.000000	98.165531
3591.000000	98.167490
3590.000000	98.167699
3589.000000	98.166762
3588.000000	98.164555
3587.000000	98.160135
3586.000000	98.153884
3585.000000	98.147958
3584.000000	98.144565
3583.000000	98.144542
3582.000000	98.147070
3581.000000	98.150602
3580.000000	98.153827
3579.000000	98.156051
3578.000000	98.156976
3577.000000	98.156647
3576.000000	98.155718
3575.000000	98.155317
3574.000000	98.156234
3573.000000	98.158093
3572.000000	98.159620
3571.000000	98.159756
3570.000000	98.158564
3569.000000	98.157127
3568.000000	98.156304
3567.000000	98.155924
3566.000000	98.155485
3565.000000	98.154596
3564.000000	98.152877
3563.000000	98.150378
3562.000000	98.147907
3561.000000	98.146456
3560.000000	98.146311
3559.000000	98.146836
3558.000000	98.147248
3557.000000	98.147424
3556.000000	98.147832
3555.000000	98.148837
3554.000000	98.150267
3553.000000	98.151450
3552.000000	98.151564
3551.000000	98.150184
3550.000000	98.147625
3549.000000	98.144825
3548.000000	98.142690
3547.000000	98.141436
3546.000000	98.140708
3545.000000	98.140175
3544.000000	98.139696
3543.000000	98.139121
3542.000000	98.138345
3541.000000	98.137488
3540.000000	98.136693
3539.000000	98.135795
3538.000000	98.134497
3537.000000	98.132927
3536.000000	98.131765
3535.000000	98.131739
3534.000000	98.133022
3533.000000	98.135147
3532.000000	98.137273
3531.000000	98.138578
3530.000000	98.138732
3529.000000	98.138126
3528.000000	98.137577
3527.000000	98.137650
3526.000000	98.138242
3525.000000	98.138773
3524.000000	98.138656
3523.000000	98.137767
3522.000000	98.136543
3521.000000	98.135496
3520.000000	98.134622
3519.000000	98.133507
3518.000000	98.132034
3517.000000	98.130774
3516.000000	98.130396
3515.000000	98.130884
3514.000000	98.131617
3513.000000	98.132217
3512.000000	98.132857
3511.000000	98.133532
3510.000000	98.133499
3509.000000	98.131955
3508.000000	98.129072
3507.000000	98.126014
3506.000000	98.124002
3505.000000	98.123615
3504.000000	98.124710
3503.000000	98.126612
3502.000000	98.128322
3501.000000	98.128952
3500.000000	98.128399
3499.000000	98.127637
3498.000000	98.128075
3497.000000	98.130333
3496.000000	98.133590
3495.000000	98.136239
3494.000000	98.137328
3493.000000	98.137227
3492.000000	98.137023
3491.000000	98.137368
3490.000000	98.137935
3489.000000	98.137986
3488.000000	98.137223
3487.000000	98.135910
3486.000000	98.134295
3485.000000	98.132238
3484.000000	98.129579
3483.000000	98.126772
3482.000000	98.124956
3481.000000	98.125123
3480.000000	98.127109
3479.000000	98.129431
3478.000000	98.130355
3477.000000	98.129280
3476.000000	98.127021
3475.000000	98.124916
3474.000000	98.123608
3473.000000	98.122828
3472.000000	98.122182
3471.000000	98.121763
3470.000000	98.121897
3469.000000	98.122548
3468.000000	98.123260
3467.000000	98.123584
3466.000000	98.123338
3465.000000	98.122455
3464.000000	98.120818
3463.000000	98.118399
3462.000000	98.115488
3461.000000	98.112643
3460.000000	98.110378
3459.000000	98.108871
3458.000000	98.107879
3457.000000	98.106940
3456.000000	98.105825
3455.000000	98.104889
3454.000000	98.104825
3453.000000	98.105919
3452.000000	98.107565
3451.000000	98.108587
3450.000000	98.108234
3449.000000	98.106744
3448.000000	98.105058
3447.000000	98.104088
3446.000000	98.104146
3445.000000	98.104947
3444.000000	98.105832
3443.000000	98.106053
3442.000000	98.105167
3441.000000	98.103344
3440.000000	98.101329
3439.000000	98.099919
3438.000000	98.099375
3437.000000	98.099399
3436.000000	98.099564
3435.000000	98.099650
3434.000000	98.099585
3433.000000	98.099273
3432.000000	98.098617
3431.000000	98.097725
3430.000000	98.096994
3429.000000	98.096866
3428.000000	98.097436
3427.000000	98.098318
3426.000000	98.098989
3425.000000	98.099246
3424.000000	98.099239
3423.000000	98.099104
3422.000000	98.098730
3421.000000	98.097976
3420.000000	98.096938
3419.000000	98.095853
3418.000000	98.094864
3417.000000	98.094026
3416.000000	98.093464
3415.000000	98.093305
3414.000000	98.093453
3413.000000	98.093618
3412.000000	98.093680
3411.000000	98.093852
3410.000000	98.094343
3409.000000	98.094934
3408.000000	98.095076
3407.000000	98.094517
3406.000000	98.093736
3405.000000	98.093650
3404.000000	98.094872
3403.000000	98.097254
3402.000000	98.099920
3401.000000	98.101804
3400.000000	98.102308
3399.000000	98.101562
3398.000000	98.100280
3397.000000	98.099219
3396.000000	98.098736
3395.000000	98.098808
3394.000000	98.099239
3393.000000	98.099732
3392.000000	98.099902
3391.000000	98.099469
3390.000000	98.098546
3389.000000	98.097647
3388.000000	98.097233
3387.000000	98.097275
3386.000000	98.097362
3385.000000	98.097236
3384.000000	98.097113
3383.000000	98.097388
3382.000000	98.098137
3381.000000	98.099004
3380.000000	98.099503
3379.000000	98.099397
3378.000000	98.098780
3377.000000	98.097978
3376.000000	98.097369
3375.000000	98.097189
3374.000000	98.097458
3373.000000	98.098038
3372.000000	98.098755
3371.000000	98.099491
3370.000000	98.100183
3369.000000	98.100775
3368.000000	98.101182
3367.000000	98.101288
3366.000000	98.101009
3365.000000	98.100451
3364.000000	98.099973
3363.000000	98.099921
3362.000000	98.100299
3361.000000	98.100755
3360.000000	98.100964
3359.000000	98.100938
3358.000000	98.100857
3357.000000	98.100742
3356.000000	98.100492
3355.000000	98.100199
3354.000000	98.100223
3353.000000	98.100813
3352.000000	98.101757
3351.000000	98.102541
3350.000000	98.102814
3349.000000	98.102646
3348.000000	98.102450
3347.000000	98.102682
3346.000000	98.103531
3345.000000	98.104810
3344.000000	98.106069
3343.000000	98.106940
3342.000000	98.107410
3341.000000	98.107776
3340.000000	98.108329
3339.000000	98.109039
3338.000000	98.109614
3337.000000	98.109827
3336.000000	98.109761
3335.000000	98.109711
3334.000000	98.109854
3333.000000	98.110095
3332.000000	98.110220
3331.000000	98.110157
3330.000000	98.110043
3329.000000	98.110065
3328.000000	98.110265
3327.000000	98.110497
3326.000000	98.110578
3325.000000	98.110481
3324.000000	98.110382
3323.000000	98.110524
3322.000000	98.110987
3321.000000	98.111630
3320.000000	98.112212
3319.000000	98.112603
3318.000000	98.112842
3317.000000	98.113036
3316.000000	98.113266
3315.000000	98.113529
3314.000000	98.113774
3313.000000	98.113982
3312.000000	98.114187
3311.000000	98.114439
3310.000000	98.114753
3309.000000	98.115087
3308.000000	98.115353
3307.000000	98.115488
3306.000000	98.115508
3305.000000	98.115490
3304.000000	98.115502
3303.000000	98.115549
3302.000000	98.115600
3301.000000	98.115642
3300.000000	98.115705
3299.000000	98.115818
3298.000000	98.115950
3297.000000	98.116028
3296.000000	98.116023
3295.000000	98.116003
3294.000000	98.116090
3293.000000	98.116361
3292.000000	98.116796
3291.000000	98.117281
3290.000000	98.117676
3289.000000	98.117919
3288.000000	98.118056
3287.000000	98.118223
3286.000000	98.118535
3285.000000	98.118977
3284.000000	98.119425
3283.000000	98.119755
3282.000000	98.119953
3281.000000	98.120113
3280.000000	98.120388
3279.000000	98.120916
3278.000000	98.121702
3277.000000	98.122493
3276.000000	98.122933
3275.000000	98.122904
3274.000000	98.122620
3273.000000	98.122360
3272.000000	98.122165
3271.000000	98.121923
3270.000000	98.121669
3269.000000	98.121638
3268.000000	98.121987
3267.000000	98.122576
3266.000000	98.123132
3265.000000	98.123579
3264.000000	98.124039
3263.000000	98.124575
3262.000000	98.125040
3261.000000	98.125227
3260.000000	98.125121
3259.000000	98.125003
3258.000000	98.125264
3257.000000	98.126099
3256.000000	98.127367
3255.000000	98.128659
3254.000000	98.129560
3253.000000	98.129865
3252.000000	98.129644
3251.000000	98.129217
3250.000000	98.129004
3249.000000	98.129309
3248.000000	98.130201
3247.000000	98.131491
3246.000000	98.132773
3245.000000	98.133613
3244.000000	98.133773
3243.000000	98.133365
3242.000000	98.132823
3241.000000	98.132664
3240.000000	98.133212
3239.000000	98.134406
3238.000000	98.135742
3237.000000	98.136486
3236.000000	98.136118
3235.000000	98.134629
3234.000000	98.132422
3233.000000	98.130044
3232.000000	98.128067
3231.000000	98.127056
3230.000000	98.127412
3229.000000	98.129095
3228.000000	98.131610
3227.000000	98.134265
3226.000000	98.136398
3225.000000	98.137490
3224.000000	98.137471
3223.000000	98.137093
3222.000000	98.137624
3221.000000	98.139752
3220.000000	98.142781
3219.000000	98.145114
3218.000000	98.145557
3217.000000	98.143958
3216.000000	98.140841
3215.000000	98.136945
3214.000000	98.133235
3213.000000	98.130822
3212.000000	98.130384
3211.000000	98.131523
3210.000000	98.132769
3209.000000	98.132574
3208.000000	98.130489
3207.000000	98.127488
3206.000000	98.125213
3205.000000	98.124711
3204.000000	98.125822
3203.000000	98.127651
3202.000000	98.129558
3201.000000	98.131626
3200.000000	98.134173
3199.000000	98.136967
3198.000000	98.139139
3197.000000	98.139993
3196.000000	98.139821
3195.000000	98.139804
3194.000000	98.141061
3193.000000	98.143710
3192.000000	98.146770
3191.000000	98.148996
3190.000000	98.149985
3189.000000	98.150469
3188.000000	98.151364
3187.000000	98.152432
3186.000000	98.152294
3185.000000	98.150079
3184.000000	98.146760
3183.000000	98.144413
3182.000000	98.144075
3181.000000	98.144924
3180.000000	98.145512
3179.000000	98.145297
3178.000000	98.144786
3177.000000	98.144736
3176.000000	98.145640
3175.000000	98.147567
3174.000000	98.149934
3173.000000	98.151639
3172.000000	98.151969
3171.000000	98.151348
3170.000000	98.150927
3169.000000	98.151463
3168.000000	98.152898
3167.000000	98.154852
3166.000000	98.156983
3165.000000	98.158917
3164.000000	98.160282
3163.000000	98.160983
3162.000000	98.161224
3161.000000	98.161238
3160.000000	98.161151
3159.000000	98.161129
3158.000000	98.161426
3157.000000	98.162157
3156.000000	98.163119
3155.000000	98.163952
3154.000000	98.164451
3153.000000	98.164679
3152.000000	98.164836
3151.000000	98.165101
3150.000000	98.165530
3149.000000	98.166066
3148.000000	98.166648
3147.000000	98.167295
3146.000000	98.168055
3145.000000	98.168885
3144.000000	98.169652
3143.000000	98.170249
3142.000000	98.170669
3141.000000	98.170961
3140.000000	98.171191
3139.000000	98.171501
3138.000000	98.172064
3137.000000	98.172939
3136.000000	98.173970
3135.000000	98.174884
3134.000000	98.175536
3133.000000	98.175975
3132.000000	98.176376
3131.000000	98.176933
3130.000000	98.177727
3129.000000	98.178683
3128.000000	98.179607
3127.000000	98.180363
3126.000000	98.180963
3125.000000	98.181488
3124.000000	98.181967
3123.000000	98.182386
3122.000000	98.182777
3121.000000	98.183206
3120.000000	98.183689
3119.000000	98.184193
3118.000000	98.184696
3117.000000	98.185212
3116.000000	98.185744
3115.000000	98.186265
3114.000000	98.186756
3113.000000	98.187240
3112.000000	98.187754
3111.000000	98.188301
3110.000000	98.188841
3109.000000	98.189335
3108.000000	98.189782
3107.000000	98.190208
3106.000000	98.190632
3105.000000	98.191058
3104.000000	98.191491
3103.000000	98.191944
3102.000000	98.192432
3101.000000	98.192937
3100.000000	98.193418
3099.000000	98.193859
3098.000000	98.194308
3097.000000	98.194821
3096.000000	98.195396
3095.000000	98.195958
3094.000000	98.196429
3093.000000	98.196790
3092.000000	98.197079
3091.000000	98.197348
3090.000000	98.197657
3089.000000	98.198064
3088.000000	98.198602
3087.000000	98.199226
3086.000000	98.199830
3085.000000	98.200332
3084.000000	98.200723
3083.000000	98.201050
3082.000000	98.201395
3081.000000	98.201844
3080.000000	98.202455
3079.000000	98.203196
3078.000000	98.203914
3077.000000	98.204416
3076.000000	98.204605
3075.000000	98.204593
3074.000000	98.204703
3073.000000	98.205214
3072.000000	98.206162
3071.000000	98.207295
3070.000000	98.208305
3069.000000	98.209133
3068.000000	98.209997
3067.000000	98.211112
3066.000000	98.212342
3065.000000	98.213250
3064.000000	98.213587
3063.000000	98.213627
3062.000000	98.213866
3061.000000	98.214363
3060.000000	98.214659
3059.000000	98.214395
3058.000000	98.213845
3057.000000	98.213694
3056.000000	98.214311
3055.000000	98.215391
3054.000000	98.216319
3053.000000	98.216821
3052.000000	98.217169
3051.000000	98.217806
3050.000000	98.218866
3049.000000	98.220023
3048.000000	98.220807
3047.000000	98.221044
3046.000000	98.221010
3045.000000	98.221186
3044.000000	98.221855
3043.000000	98.222916
3042.000000	98.223985
3041.000000	98.224651
3040.000000	98.224749
3039.000000	98.224462
3038.000000	98.224207
3037.000000	98.224292
3036.000000	98.224689
3035.000000	98.225202
3034.000000	98.225760
3033.000000	98.226459
3032.000000	98.227377
3031.000000	98.228472
3030.000000	98.229612
3029.000000	98.230658
3028.000000	98.231577
3027.000000	98.232535
3026.000000	98.233853
3025.000000	98.235776
3024.000000	98.238203
3023.000000	98.240663
3022.000000	98.242585
3021.000000	98.243613
3020.000000	98.243787
3019.000000	98.243621
3018.000000	98.243925
3017.000000	98.245308
3016.000000	98.247787
3015.000000	98.250824
3014.000000	98.253720
3013.000000	98.256006
3012.000000	98.257550
3011.000000	98.258534
3010.000000	98.259395
3009.000000	98.260562
3008.000000	98.262107
3007.000000	98.263752
3006.000000	98.265291
3005.000000	98.266923
3004.000000	98.269078
3003.000000	98.271966
3002.000000	98.275360
3001.000000	98.278668
3000.000000	98.281185
2999.000000	98.282430
2998.000000	98.282514
2997.000000	98.282327
2996.000000	98.283000
2995.000000	98.284960
2994.000000	98.287608
2993.000000	98.290013
2992.000000	98.291968
2991.000000	98.294108
2990.000000	98.297048
2989.000000	98.300699
2988.000000	98.304505
2987.000000	98.308109
2986.000000	98.311534
2985.000000	98.314822
2984.000000	98.317799
2983.000000	98.320170
2982.000000	98.321631
2981.000000	98.321922
2980.000000	98.321212
2979.000000	98.320699
2978.000000	98.322393
2977.000000	98.327633
2976.000000	98.335672
2975.000000	98.343984
2974.000000	98.350356
2973.000000	98.354528
2972.000000	98.357655
2971.000000	98.360647
2970.000000	98.363595
2969.000000	98.366578
2968.000000	98.370059
2967.000000	98.374113
2966.000000	98.377978
2965.000000	98.381153
2964.000000	98.384524
2963.000000	98.389422
2962.000000	98.395460
2961.000000	98.400080
2960.000000	98.400678
2959.000000	98.396965
2958.000000	98.391300
2957.000000	98.387096
2956.000000	98.386759
2955.000000	98.390283
2954.000000	98.395208
2953.000000	98.398488
2952.000000	98.399267
2951.000000	98.399874
2950.000000	98.403461
2949.000000	98.410581
2948.000000	98.418628
2947.000000	98.424828
2946.000000	98.429262
2945.000000	98.434332
2944.000000	98.441554
2943.000000	98.449721
2942.000000	98.456487
2941.000000	98.461187
2940.000000	98.465471
2939.000000	98.471531
2938.000000	98.480572
2937.000000	98.493050
2936.000000	98.509070
2935.000000	98.527482
2934.000000	98.545418
2933.000000	98.560573
2932.000000	98.574427
2931.000000	98.591669
2930.000000	98.615194
2929.000000	98.642135
2928.000000	98.665793
2927.000000	98.681059
2926.000000	98.687038
2925.000000	98.685653
2924.000000	98.679593
2923.000000	98.671573
2922.000000	98.663510
2921.000000	98.655083
2920.000000	98.643901
2919.000000	98.627992
2918.000000	98.607870
2917.000000	98.585910
2916.000000	98.564336
2915.000000	98.544202
2914.000000	98.525488
2913.000000	98.507551
2912.000000	98.490154
2911.000000	98.474709
2910.000000	98.463687
2909.000000	98.457846
2908.000000	98.454725
2907.000000	98.451015
2906.000000	98.445845
2905.000000	98.440496
2904.000000	98.435549
2903.000000	98.430374
2902.000000	98.425558
2901.000000	98.423461
2900.000000	98.424899
2899.000000	98.426702
2898.000000	98.424436
2897.000000	98.417292
2896.000000	98.408820
2895.000000	98.402795
2894.000000	98.399566
2893.000000	98.396669
2892.000000	98.391939
2891.000000	98.385355
2890.000000	98.378378
2889.000000	98.372456
2888.000000	98.368392
2887.000000	98.366548
2886.000000	98.366827
2885.000000	98.368113
2884.000000	98.368236
2883.000000	98.365579
2882.000000	98.361042
2881.000000	98.357586
2880.000000	98.357219
2879.000000	98.358972
2878.000000	98.360579
2877.000000	98.361732
2876.000000	98.364591
2875.000000	98.370917
2874.000000	98.379637
2873.000000	98.387629
2872.000000	98.392314
2871.000000	98.393125
2870.000000	98.391159
2869.000000	98.388408
2868.000000	98.387165
2867.000000	98.389185
2866.000000	98.394801
2865.000000	98.402896
2864.000000	98.411894
2863.000000	98.420850
2862.000000	98.429902
2861.000000	98.440071
2860.000000	98.452547
2859.000000	98.467529
2858.000000	98.483278
2857.000000	98.496538
2856.000000	98.504377
2855.000000	98.505817
2854.000000	98.501841
2853.000000	98.494023
2852.000000	98.483409
2851.000000	98.470692
2850.000000	98.457103
2849.000000	98.444527
2848.000000	98.434306
2847.000000	98.425872
2846.000000	98.416903
2845.000000	98.405346
2844.000000	98.391635
2843.000000	98.378888
2842.000000	98.370494
2841.000000	98.367099
2840.000000	98.365802
2839.000000	98.362464
2838.000000	98.355198
2837.000000	98.345951
2836.000000	98.338851
2835.000000	98.336951
2834.000000	98.340137
2833.000000	98.345432
2832.000000	98.349114
2831.000000	98.348967
2830.000000	98.345204
2829.000000	98.339718
2828.000000	98.334497
2827.000000	98.330481
2826.000000	98.327524
2825.000000	98.325016
2824.000000	98.322428
2823.000000	98.319639
2822.000000	98.317227
2821.000000	98.316367
2820.000000	98.317855
2819.000000	98.320972
2818.000000	98.323675
2817.000000	98.324451
2816.000000	98.323944
2815.000000	98.324372
2814.000000	98.327320
2813.000000	98.332358
2812.000000	98.337649
2811.000000	98.341401
2810.000000	98.342623
2809.000000	98.341087
2808.000000	98.337253
2807.000000	98.332307
2806.000000	98.327801
2805.000000	98.324886
2804.000000	98.323805
2803.000000	98.324083
2802.000000	98.325005
2801.000000	98.325885
2800.000000	98.326188
2799.000000	98.325752
2798.000000	98.324996
2797.000000	98.324770
2796.000000	98.325838
2795.000000	98.328363
2794.000000	98.331725
2793.000000	98.334724
2792.000000	98.336066
2791.000000	98.334999
2790.000000	98.331833
2789.000000	98.328041
2788.000000	98.325630
2787.000000	98.325978
2786.000000	98.329157
2785.000000	98.334112
2784.000000	98.339385
2783.000000	98.343830
2782.000000	98.346853
2781.000000	98.348298
2780.000000	98.348366
2779.000000	98.347533
2778.000000	98.346253
2777.000000	98.344623
2776.000000	98.342451
2775.000000	98.339787
2774.000000	98.337299
2773.000000	98.335949
2772.000000	98.336262
2771.000000	98.337934
2770.000000	98.340068
2769.000000	98.341753
2768.000000	98.342501
2767.000000	98.342370
2766.000000	98.341883
2765.000000	98.341801
2764.000000	98.342786
2763.000000	98.345171
2762.000000	98.348839
2761.000000	98.353114
2760.000000	98.356798
2759.000000	98.358744
2758.000000	98.358706
2757.000000	98.357547
2756.000000	98.356347
2755.000000	98.355246
2754.000000	98.353587
2753.000000	98.351185
2752.000000	98.348965
2751.000000	98.348059
2750.000000	98.348609
2749.000000	98.349841
2748.000000	98.351102
2747.000000	98.352422
2746.000000	98.354062
2745.000000	98.355956
2744.000000	98.357762
2743.000000	98.359180
2742.000000	98.360092
2741.000000	98.360593
2740.000000	98.360997
2739.000000	98.361607
2738.000000	98.362313
2737.000000	98.362610
2736.000000	98.362191
2735.000000	98.361474
2734.000000	98.361390
2733.000000	98.362597
2732.000000	98.364987
2731.000000	98.367811
2730.000000	98.370241
2729.000000	98.371841
2728.000000	98.372581
2727.000000	98.372580
2726.000000	98.372012
2725.000000	98.371227
2724.000000	98.370709
2723.000000	98.370734
2722.000000	98.371182
2721.000000	98.371782
2720.000000	98.372428
2719.000000	98.373149
2718.000000	98.373873
2717.000000	98.374453
2716.000000	98.374888
2715.000000	98.375320
2714.000000	98.375816
2713.000000	98.376303
2712.000000	98.376710
2711.000000	98.377065
2710.000000	98.377431
2709.000000	98.377829
2708.000000	98.378251
2707.000000	98.378683
2706.000000	98.379096
2705.000000	98.379451
2704.000000	98.379731
2703.000000	98.379968
2702.000000	98.380194
2701.000000	98.380419
2700.000000	98.380645
2699.000000	98.380876
2698.000000	98.381118
2697.000000	98.381377
2696.000000	98.381662
2695.000000	98.381980
2694.000000	98.382321
2693.000000	98.382643
2692.000000	98.382894
2691.000000	98.383056
2690.000000	98.383172
2689.000000	98.383314
2688.000000	98.383519
2687.000000	98.383763
2686.000000	98.383999
2685.000000	98.384198
2684.000000	98.384368
2683.000000	98.384568
2682.000000	98.384891
2681.000000	98.385361
2680.000000	98.385864
2679.000000	98.386209
2678.000000	98.386299
2677.000000	98.386244
2676.000000	98.386320
2675.000000	98.386765
2674.000000	98.387551
2673.000000	98.388302
2672.000000	98.388547
2671.000000	98.388113
2670.000000	98.387296
2669.000000	98.386673
2668.000000	98.386665
2667.000000	98.387304
2666.000000	98.388216
2665.000000	98.388842
2664.000000	98.388907
2663.000000	98.388758
2662.000000	98.389136
2661.000000	98.390461
2660.000000	98.392353
2659.000000	98.393941
2658.000000	98.394676
2657.000000	98.394705
2656.000000	98.394577
2655.000000	98.394643
2654.000000	98.394680
2653.000000	98.394069
2652.000000	98.392446
2651.000000	98.390208
2650.000000	98.388348
2649.000000	98.387590
2648.000000	98.387846
2647.000000	98.388568
2646.000000	98.389373
2645.000000	98.390193
2644.000000	98.391007
2643.000000	98.391777
2642.000000	98.392501
2641.000000	98.393010
2640.000000	98.392857
2639.000000	98.391779
2638.000000	98.390248
2637.000000	98.389277
2636.000000	98.389379
2635.000000	98.390082
2634.000000	98.390463
2633.000000	98.390207
2632.000000	98.389842
2631.000000	98.389975
2630.000000	98.390599
2629.000000	98.391178
2628.000000	98.391257
2627.000000	98.390858
2626.000000	98.390362
2625.000000	98.390160
2624.000000	98.390379
2623.000000	98.390902
2622.000000	98.391522
2621.000000	98.392066
2620.000000	98.392454
2619.000000	98.392663
2618.000000	98.392691
2617.000000	98.392545
2616.000000	98.392275
2615.000000	98.392018
2614.000000	98.391961
2613.000000	98.392220
2612.000000	98.392735
2611.000000	98.393285
2610.000000	98.393631
2609.000000	98.393656
2608.000000	98.393413
2607.000000	98.393093
2606.000000	98.392952
2605.000000	98.393156
2604.000000	98.393640
2603.000000	98.394142
2602.000000	98.394444
2601.000000	98.394504
2600.000000	98.394310
2599.000000	98.393794
2598.000000	98.393036
2597.000000	98.392396
2596.000000	98.392185
2595.000000	98.392301
2594.000000	98.392507
2593.000000	98.392862
2592.000000	98.393522
2591.000000	98.394270
2590.000000	98.394664
2589.000000	98.394671
2588.000000	98.394652
2587.000000	98.394625
2586.000000	98.394042
2585.000000	98.392598
2584.000000	98.390958
2583.000000	98.390179
2582.000000	98.390630
2581.000000	98.391761
2580.000000	98.392804
2579.000000	98.393552
2578.000000	98.394344
2577.000000	98.395527
2576.000000	98.397027
2575.000000	98.398303
2574.000000	98.398784
2573.000000	98.398430
2572.000000	98.397862
2571.000000	98.397857
2570.000000	98.398612
2569.000000	98.399635
2568.000000	98.400289
2567.000000	98.400374
2566.000000	98.400128
2565.000000	98.399848
2564.000000	98.399635
2563.000000	98.399508
2562.000000	98.399584
2561.000000	98.399976
2560.000000	98.400590
2559.000000	98.401140
2558.000000	98.401438
2557.000000	98.401586
2556.000000	98.401832
2555.000000	98.402298
2554.000000	98.402899
2553.000000	98.403479
2552.000000	98.403953
2551.000000	98.404328
2550.000000	98.404650
2549.000000	98.404948
2548.000000	98.405203
2547.000000	98.405374
2546.000000	98.405467
2545.000000	98.405554
2544.000000	98.405732
2543.000000	98.406043
2542.000000	98.406449
2541.000000	98.406864
2540.000000	98.407225
2539.000000	98.407504
2538.000000	98.407694
2537.000000	98.407819
2536.000000	98.407955
2535.000000	98.408164
2534.000000	98.408390
2533.000000	98.408500
2532.000000	98.408486
2531.000000	98.408540
2530.000000	98.408817
2529.000000	98.409196
2528.000000	98.409399
2527.000000	98.409362
2526.000000	98.409340
2525.000000	98.409620
2524.000000	98.410242
2523.000000	98.411000
2522.000000	98.411625
2521.000000	98.411933
2520.000000	98.411918
2519.000000	98.411780
2518.000000	98.411868
2517.000000	98.412502
2516.000000	98.413734
2515.000000	98.415192
2514.000000	98.416271
2513.000000	98.416674
2512.000000	98.416718
2511.000000	98.416862
2510.000000	98.416919
2509.000000	98.416184
2508.000000	98.414500
2507.000000	98.412767
2506.000000	98.411979
2505.000000	98.412084
2504.000000	98.412388
2503.000000	98.412805
2502.000000	98.413977
2501.000000	98.416153
2500.000000	98.418609
2499.000000	98.420455
2498.000000	98.421590
2497.000000	98.422500
2496.000000	98.423526
2495.000000	98.424643
2494.000000	98.425740
2493.000000	98.426772
2492.000000	98.427705
2491.000000	98.428548
2490.000000	98.429410
2489.000000	98.430313
2488.000000	98.431040
2487.000000	98.431380
2486.000000	98.431545
2485.000000	98.432084
2484.000000	98.433291
2483.000000	98.434820
2482.000000	98.436049
2481.000000	98.436726
2480.000000	98.437085
2479.000000	98.437350
2478.000000	98.437381
2477.000000	98.436953
2476.000000	98.436236
2475.000000	98.435786
2474.000000	98.436046
2473.000000	98.437030
2472.000000	98.438549
2471.000000	98.440478
2470.000000	98.442642
2469.000000	98.444598
2468.000000	98.445809
2467.000000	98.446102
2466.000000	98.445866
2465.000000	98.445819
2464.000000	98.446456
2463.000000	98.447764
2462.000000	98.449359
2461.000000	98.450795
2460.000000	98.451857
2459.000000	98.452580
2458.000000	98.453042
2457.000000	98.453216
2456.000000	98.453067
2455.000000	98.452759
2454.000000	98.452641
2453.000000	98.453010
2452.000000	98.453920
2451.000000	98.455182
2450.000000	98.456455
2449.000000	98.457379
2448.000000	98.457804
2447.000000	98.457968
2446.000000	98.458355
2445.000000	98.459243
2444.000000	98.460455
2443.000000	98.461618
2442.000000	98.462633
2441.000000	98.463726
2440.000000	98.465045
2439.000000	98.466323
2438.000000	98.467074
2437.000000	98.467101
2436.000000	98.466736
2435.000000	98.466536
2434.000000	98.466696
2433.000000	98.466876
2432.000000	98.466649
2431.000000	98.466020
2430.000000	98.465416
2429.000000	98.465235
2428.000000	98.465599
2427.000000	98.466497
2426.000000	98.467886
2425.000000	98.469545
2424.000000	98.471078
2423.000000	98.472288
2422.000000	98.473308
2421.000000	98.474208
2420.000000	98.474710
2419.000000	98.474481
2418.000000	98.473580
2417.000000	98.472460
2416.000000	98.471650
2415.000000	98.471518
2414.000000	98.472161
2413.000000	98.473280
2412.000000	98.474277
2411.000000	98.474729
2410.000000	98.474712
2409.000000	98.474559
2408.000000	98.474447
2407.000000	98.474424
2406.000000	98.474682
2405.000000	98.475474
2404.000000	98.476754
2403.000000	98.478047
2402.000000	98.478874
2401.000000	98.479103
2400.000000	98.478875
2399.000000	98.478469
2398.000000	98.478137
2397.000000	98.478041
2396.000000	98.478242
2395.000000	98.478702
2394.000000	98.479344
2393.000000	98.480014
2392.000000	98.480541
2391.000000	98.480855
2390.000000	98.480993
2389.000000	98.481057
2388.000000	98.481114
2387.000000	98.481173
2386.000000	98.481249
2385.000000	98.481352
2384.000000	98.481470
2383.000000	98.481585
2382.000000	98.481700
2381.000000	98.481813
2380.000000	98.481923
2379.000000	98.482028
2378.000000	98.482132
2377.000000	98.482242
2376.000000	98.482362
2375.000000	98.482492
2374.000000	98.482624
2373.000000	98.482751
2372.000000	98.482867
2371.000000	98.482972
2370.000000	98.483072
2369.000000	98.483176
2368.000000	98.483293
2367.000000	98.483426
2366.000000	98.483580
2365.000000	98.483756
2364.000000	98.483950
2363.000000	98.484150
2362.000000	98.484341
2361.000000	98.484510
2360.000000	98.484658
2359.000000	98.484797
2358.000000	98.484941
2357.000000	98.485096
2356.000000	98.485255
2355.000000	98.485401
2354.000000	98.485525
2353.000000	98.485630
2352.000000	98.485736
2351.000000	98.485860
2350.000000	98.486006
2349.000000	98.486162
2348.000000	98.486312
2347.000000	98.486444
2346.000000	98.486562
2345.000000	98.486678
2344.000000	98.486800
2343.000000	98.486919
2342.000000	98.487024
2341.000000	98.487109
2340.000000	98.487176
2339.000000	98.487229
2338.000000	98.487274
2337.000000	98.487316
2336.000000	98.487358
2335.000000	98.487399
2334.000000	98.487433
2333.000000	98.487451
2332.000000	98.487452
2331.000000	98.487440
2330.000000	98.487423
2329.000000	98.487404
2328.000000	98.487386
2327.000000	98.487364
2326.000000	98.487328
2325.000000	98.487272
2324.000000	98.487191
2323.000000	98.487082
2322.000000	98.486946
2321.000000	98.486787
2320.000000	98.486617
2319.000000	98.486442
2318.000000	98.486269
2317.000000	98.486096
2316.000000	98.485916
2315.000000	98.485722
2314.000000	98.485516
2313.000000	98.485308
2312.000000	98.485108
2311.000000	98.484920
2310.000000	98.484729
2309.000000	98.484519
2308.000000	98.484283
2307.000000	98.484030
2306.000000	98.483776
2305.000000	98.483538
2304.000000	98.483318
2303.000000	98.483110
2302.000000	98.482902
2301.000000	98.482690
2300.000000	98.482478
2299.000000	98.482273
2298.000000	98.482077
2297.000000	98.481891
2296.000000	98.481713
2295.000000	98.481544
2294.000000	98.481381
2293.000000	98.481221
2292.000000	98.481059
2291.000000	98.480895
2290.000000	98.480732
2289.000000	98.480573
2288.000000	98.480416
2287.000000	98.480262
2286.000000	98.480109
2285.000000	98.479959
2284.000000	98.479813
2283.000000	98.479668
2282.000000	98.479521
2281.000000	98.479373
2280.000000	98.479225
2279.000000	98.479082
2278.000000	98.478945
2277.000000	98.478813
2276.000000	98.478686
2275.000000	98.478563
2274.000000	98.478440
2273.000000	98.478321
2272.000000	98.478215
2271.000000	98.478134
2270.000000	98.478060
2269.000000	98.477950
2268.000000	98.477783
2267.000000	98.477618
2266.000000	98.477536
2265.000000	98.477539
2264.000000	98.477520
2263.000000	98.477378
2262.000000	98.477112
2261.000000	98.476821
2260.000000	98.476611
2259.000000	98.476532
2258.000000	98.476595
2257.000000	98.476794
2256.000000	98.477108
2255.000000	98.477469
2254.000000	98.477774
2253.000000	98.477917
2252.000000	98.477830
2251.000000	98.477536
2250.000000	98.477195
2249.000000	98.477035
2248.000000	98.477153
2247.000000	98.477423
2246.000000	98.477641
2245.000000	98.477771
2244.000000	98.477908
2243.000000	98.478001
2242.000000	98.477810
2241.000000	98.477251
2240.000000	98.476639
2239.000000	98.476408
2238.000000	98.476648
2237.000000	98.477084
2236.000000	98.477428
2235.000000	98.477591
2234.000000	98.477565
2233.000000	98.477403
2232.000000	98.477350
2231.000000	98.477734
2230.000000	98.478611
2229.000000	98.479669
2228.000000	98.480580
2227.000000	98.481291
2226.000000	98.481865
2225.000000	98.482290
2224.000000	98.482559
2223.000000	98.482817
2222.000000	98.483233
2221.000000	98.483770
2220.000000	98.484255
2219.000000	98.484635
2218.000000	98.485019
2217.000000	98.485490
2216.000000	98.486001
2215.000000	98.486475
2214.000000	98.486917
2213.000000	98.487384
2212.000000	98.487897
2211.000000	98.488428
2210.000000	98.488945
2209.000000	98.489453
2208.000000	98.489975
2207.000000	98.490520
2206.000000	98.491069
2205.000000	98.491593
2204.000000	98.492087
2203.000000	98.492567
2202.000000	98.493066
2201.000000	98.493606
2200.000000	98.494184
2199.000000	98.494778
2198.000000	98.495357
2197.000000	98.495903
2196.000000	98.496411
2195.000000	98.496885
2194.000000	98.497333
2193.000000	98.497771
2192.000000	98.498219
2191.000000	98.498689
2190.000000	98.499178
2189.000000	98.499653
2188.000000	98.500065
2187.000000	98.500378
2186.000000	98.500593
2185.000000	98.500758
2184.000000	98.500944
2183.000000	98.501195
2182.000000	98.501491
2181.000000	98.501760
2180.000000	98.501943
2179.000000	98.502052
2178.000000	98.502141
2177.000000	98.502257
2176.000000	98.502428
2175.000000	98.502693
2174.000000	98.503102
2173.000000	98.503674
2172.000000	98.504358
2171.000000	98.505028
2170.000000	98.505498
2169.000000	98.505601
2168.000000	98.505319
2167.000000	98.504854
2166.000000	98.504525
2165.000000	98.504539
2164.000000	98.504835
2163.000000	98.505147
2162.000000	98.505260
2161.000000	98.505230
2160.000000	98.505299
2159.000000	98.505580
2158.000000	98.505890
2157.000000	98.505961
2156.000000	98.505778
2155.000000	98.505574
2154.000000	98.505535
2153.000000	98.505644
2152.000000	98.505840
2151.000000	98.506162
2150.000000	98.506604
2149.000000	98.506960
2148.000000	98.507018
2147.000000	98.506856
2146.000000	98.506817
2145.000000	98.507156
2144.000000	98.507817
2143.000000	98.508565
2142.000000	98.509237
2141.000000	98.509818
2140.000000	98.510358
2139.000000	98.510896
2138.000000	98.511451
2137.000000	98.512029
2136.000000	98.512617
2135.000000	98.513198
2134.000000	98.513764
2133.000000	98.514328
2132.000000	98.514917
2131.000000	98.515539
2130.000000	98.516180
2129.000000	98.516820
2128.000000	98.517455
2127.000000	98.518091
2126.000000	98.518735
2125.000000	98.519389
2124.000000	98.520058
2123.000000	98.520748
2122.000000	98.521465
2121.000000	98.522209
2120.000000	98.522973
2119.000000	98.523745
2118.000000	98.524517
2117.000000	98.525288
2116.000000	98.526065
2115.000000	98.526856
2114.000000	98.527669
2113.000000	98.528501
2112.000000	98.529346
2111.000000	98.530198
2110.000000	98.531055
2109.000000	98.531920
2108.000000	98.532793
2107.000000	98.533673
2106.000000	98.534558
2105.000000	98.535449
2104.000000	98.536346
2103.000000	98.537244
2102.000000	98.538131
2101.000000	98.538993
2100.000000	98.539806
2099.000000	98.540532
2098.000000	98.541172
2097.000000	98.541791
2096.000000	98.542467
2095.000000	98.543228
2094.000000	98.544068
2093.000000	98.544999
2092.000000	98.545997
2091.000000	98.546936
2090.000000	98.547706
2089.000000	98.548343
2088.000000	98.548922
2087.000000	98.549359
2086.000000	98.549544
2085.000000	98.549679
2084.000000	98.550203
2083.000000	98.551344
2082.000000	98.552938
2081.000000	98.554682
2080.000000	98.556346
2079.000000	98.557672
2078.000000	98.558362
2077.000000	98.558304
2076.000000	98.557760
2075.000000	98.557282
2074.000000	98.557393
2073.000000	98.558281
2072.000000	98.559740
2071.000000	98.561380
2070.000000	98.562881
2069.000000	98.563951
2068.000000	98.564198
2067.000000	98.563454
2066.000000	98.562191
2065.000000	98.561279
2064.000000	98.561163
2063.000000	98.561549
2062.000000	98.561946
2061.000000	98.562116
2060.000000	98.561900
2059.000000	98.561107
2058.000000	98.559883
2057.000000	98.558838
2056.000000	98.558403
2055.000000	98.558310
2054.000000	98.558076
2053.000000	98.557794
2052.000000	98.558033
2051.000000	98.559005
2050.000000	98.560121
2049.000000	98.560448
2048.000000	98.559520
2047.000000	98.557666
2046.000000	98.555675
2045.000000	98.554114
2044.000000	98.552941
2043.000000	98.551835
2042.000000	98.550766
2041.000000	98.550045
2040.000000	98.549811
2039.000000	98.549728
2038.000000	98.549293
2037.000000	98.548285
2036.000000	98.546810
2035.000000	98.545143
2034.000000	98.543627
2033.000000	98.542563
2032.000000	98.541988
2031.000000	98.541605
2030.000000	98.541043
2029.000000	98.540156
2028.000000	98.539028
2027.000000	98.537810
2026.000000	98.536675
2025.000000	98.535816
2024.000000	98.535319
2023.000000	98.535065
2022.000000	98.534786
2021.000000	98.534287
2020.000000	98.533560
2019.000000	98.532692
2018.000000	98.531775
2017.000000	98.530891
2016.000000	98.530114
2015.000000	98.529439
2014.000000	98.528736
2013.000000	98.527835
2012.000000	98.526693
2011.000000	98.525479
2010.000000	98.524501
2009.000000	98.523947
2008.000000	98.523717
2007.000000	98.523467
2006.000000	98.522931
2005.000000	98.522141
2004.000000	98.521349
2003.000000	98.520783
2002.000000	98.520476
2001.000000	98.520312
2000.000000	98.520151
1999.000000	98.519886
1998.000000	98.519460
1997.000000	98.518851
1996.000000	98.518042
1995.000000	98.517082
1994.000000	98.516193
1993.000000	98.515666
1992.000000	98.515534
1991.000000	98.515440
1990.000000	98.514990
1989.000000	98.514157
1988.000000	98.513242
1987.000000	98.512576
1986.000000	98.512324
1985.000000	98.512434
1984.000000	98.512656
1983.000000	98.512729
1982.000000	98.512694
1981.000000	98.512890
1980.000000	98.513421
1979.000000	98.513853
1978.000000	98.513706
1977.000000	98.513082
1976.000000	98.512588
1975.000000	98.512695
1974.000000	98.513443
1973.000000	98.514607
1972.000000	98.515863
1971.000000	98.516874
1970.000000	98.517461
1969.000000	98.517720
1968.000000	98.517767
1967.000000	98.517407
1966.000000	98.516409
1965.000000	98.515127
1964.000000	98.514443
1963.000000	98.514908
1962.000000	98.516140
1961.000000	98.517239
1960.000000	98.517728
1959.000000	98.517811
1958.000000	98.517740
1957.000000	98.517402
1956.000000	98.516778
1955.000000	98.516427
1954.000000	98.517018
1953.000000	98.518354
1952.000000	98.519414
1951.000000	98.519623
1950.000000	98.519595
1949.000000	98.520386
1948.000000	98.522137
1947.000000	98.523870
1946.000000	98.524593
1945.000000	98.524033
1944.000000	98.522275
1943.000000	98.519459
1942.000000	98.516238
1941.000000	98.513877
1940.000000	98.513172
1939.000000	98.513733
1938.000000	98.514557
1937.000000	98.514966
1936.000000	98.514924
1935.000000	98.514806
1934.000000	98.515230
1933.000000	98.516716
1932.000000	98.519079
1931.000000	98.521194
1930.000000	98.521667
1929.000000	98.520179
1928.000000	98.517559
1927.000000	98.514942
1926.000000	98.512992
1925.000000	98.511769
1924.000000	98.511045
1923.000000	98.510250
1922.000000	98.508887
1921.000000	98.507005
1920.000000	98.504781
1919.000000	98.502070
1918.000000	98.498834
1917.000000	98.495866
1916.000000	98.494136
1915.000000	98.493342
1914.000000	98.492317
1913.000000	98.490527
1912.000000	98.488540
1911.000000	98.487001
1910.000000	98.485683
1909.000000	98.484062
1908.000000	98.481902
1907.000000	98.479417
1906.000000	98.477126
1905.000000	98.475664
1904.000000	98.475434
1903.000000	98.475634
1902.000000	98.474700
1901.000000	98.472138
1900.000000	98.468925
1899.000000	98.466189
1898.000000	98.464189
1897.000000	98.462651
1896.000000	98.461528
1895.000000	98.460664
1894.000000	98.459567
1893.000000	98.458003
1892.000000	98.456046
1891.000000	98.453306
1890.000000	98.448985
1889.000000	98.443435
1888.000000	98.438794
1887.000000	98.436969
1886.000000	98.437997
1885.000000	98.440605
1884.000000	98.443423
1883.000000	98.445490
1882.000000	98.446096
1881.000000	98.444934
1880.000000	98.442167
1879.000000	98.438491
1878.000000	98.435267
1877.000000	98.433975
1876.000000	98.435271
1875.000000	98.438294
1874.000000	98.440900
1873.000000	98.441366
1872.000000	98.439960
1871.000000	98.438617
1870.000000	98.439095
1869.000000	98.441097
1868.000000	98.442623
1867.000000	98.442658
1866.000000	98.442367
1865.000000	98.443399
1864.000000	98.445826
1863.000000	98.448036
1862.000000	98.448833
1861.000000	98.449223
1860.000000	98.451328
1859.000000	98.455799
1858.000000	98.461141
1857.000000	98.465421
1856.000000	98.467961
1855.000000	98.469550
1854.000000	98.471456
1853.000000	98.474551
1852.000000	98.478196
1851.000000	98.480806
1850.000000	98.482346
1849.000000	98.484345
1848.000000	98.487573
1847.000000	98.490962
1846.000000	98.493993
1845.000000	98.498152
1844.000000	98.503718
1843.000000	98.507483
1842.000000	98.507174
1841.000000	98.505019
1840.000000	98.504895
1839.000000	98.507990
1838.000000	98.511806
1837.000000	98.513814
1836.000000	98.514560
1835.000000	98.515424
1834.000000	98.516006
1833.000000	98.515421
1832.000000	98.514214
1831.000000	98.514266
1830.000000	98.516686
1829.000000	98.520337
1828.000000	98.523694
1827.000000	98.526050
1826.000000	98.526757
1825.000000	98.524996
1824.000000	98.521168
1823.000000	98.517372
1822.000000	98.515209
1821.000000	98.514471
1820.000000	98.513875
1819.000000	98.512560
1818.000000	98.510527
1817.000000	98.508347
1816.000000	98.507018
1815.000000	98.506674
1814.000000	98.506419
1813.000000	98.505433
1812.000000	98.504107
1811.000000	98.503766
1810.000000	98.504471
1809.000000	98.505252
1808.000000	98.505921
1807.000000	98.506804
1806.000000	98.507829
1805.000000	98.508935
1804.000000	98.510604
1803.000000	98.512465
1802.000000	98.512987
1801.000000	98.511222
1800.000000	98.508440
1799.000000	98.507069
1798.000000	98.507649
1797.000000	98.509260
1796.000000	98.511198
1795.000000	98.512907
1794.000000	98.513973
1793.000000	98.514552
1792.000000	98.515505
1791.000000	98.517530
1790.000000	98.519854
1789.000000	98.521661
1788.000000	98.523599
1787.000000	98.526677
1786.000000	98.530315
1785.000000	98.532670
1784.000000	98.533102
1783.000000	98.532423
1782.000000	98.532476
1781.000000	98.534810
1780.000000	98.538882
1779.000000	98.543501
1778.000000	98.548635
1777.000000	98.555890
1776.000000	98.565541
1775.000000	98.574651
1774.000000	98.580000
1773.000000	98.581358
1772.000000	98.581508
1771.000000	98.583844
1770.000000	98.588845
1769.000000	98.594229
1768.000000	98.598914
1767.000000	98.603738
1766.000000	98.609692
1765.000000	98.616644
1764.000000	98.623912
1763.000000	98.630939
1762.000000	98.637033
1761.000000	98.641470
1760.000000	98.644325
1759.000000	98.645745
1758.000000	98.645055
1757.000000	98.642785
1756.000000	98.640774
1755.000000	98.641179
1754.000000	98.644564
1753.000000	98.649773
1752.000000	98.654878
1751.000000	98.658291
1750.000000	98.659891
1749.000000	98.660910
1748.000000	98.662902
1747.000000	98.666064
1746.000000	98.669681
1745.000000	98.672009
1744.000000	98.671500
1743.000000	98.668984
1742.000000	98.666443
1741.000000	98.664376
1740.000000	98.662020
1739.000000	98.658930
1738.000000	98.655211
1737.000000	98.650151
1736.000000	98.642907
1735.000000	98.634839
1734.000000	98.628688
1733.000000	98.626418
1732.000000	98.627314
1731.000000	98.628669
1730.000000	98.628869
1729.000000	98.628357
1728.000000	98.627495
1727.000000	98.626032
1726.000000	98.624038
1725.000000	98.621993
1724.000000	98.620601
1723.000000	98.620480
1722.000000	98.620663
1721.000000	98.619637
1720.000000	98.617140
1719.000000	98.615064
1718.000000	98.614943
1717.000000	98.615428
1716.000000	98.615160
1715.000000	98.614019
1714.000000	98.611682
1713.000000	98.608271
1712.000000	98.604535
1711.000000	98.600849
1710.000000	98.597312
1709.000000	98.594496
1708.000000	98.592685
1707.000000	98.591344
1706.000000	98.589816
1705.000000	98.588302
1704.000000	98.587719
1703.000000	98.587805
1702.000000	98.587666
1701.000000	98.586830
1700.000000	98.585322
1699.000000	98.583677
1698.000000	98.581692
1697.000000	98.578905
1696.000000	98.576396
1695.000000	98.575447
1694.000000	98.575335
1693.000000	98.574305
1692.000000	98.571662
1691.000000	98.568220
1690.000000	98.565389
1689.000000	98.563894
1688.000000	98.563240
1687.000000	98.562596
1686.000000	98.561881
1685.000000	98.561639
1684.000000	98.562037
1683.000000	98.562559
1682.000000	98.562824
1681.000000	98.562574
1680.000000	98.561654
1679.000000	98.560349
1678.000000	98.559096
1677.000000	98.558283
1676.000000	98.557982
1675.000000	98.557872
1674.000000	98.557605
1673.000000	98.557032
1672.000000	98.556114
1671.000000	98.555199
1670.000000	98.554827
1669.000000	98.555153
1668.000000	98.555658
1667.000000	98.555804
1666.000000	98.555587
1665.000000	98.555281
1664.000000	98.555169
1663.000000	98.555217
1662.000000	98.555131
1661.000000	98.554877
1660.000000	98.554534
1659.000000	98.554201
1658.000000	98.553966
1657.000000	98.553935
1656.000000	98.553952
1655.000000	98.553955
1654.000000	98.553976
1653.000000	98.553513
1652.000000	98.553007
1651.000000	98.553494
1650.000000	98.554662
1649.000000	98.555669
1648.000000	98.556090
1647.000000	98.555470
1646.000000	98.554130
1645.000000	98.553155
1644.000000	98.553358
1643.000000	98.554645
1642.000000	98.556602
1641.000000	98.558761
1640.000000	98.560583
1639.000000	98.561683
1638.000000	98.561954
1637.000000	98.561863
1636.000000	98.562281
1635.000000	98.563660
1634.000000	98.565836
1633.000000	98.568074
1632.000000	98.569808
1631.000000	98.570865
1630.000000	98.571230
1629.000000	98.571082
1628.000000	98.570965
1627.000000	98.571493
1626.000000	98.572974
1625.000000	98.575197
1624.000000	98.577530
1623.000000	98.579380
1622.000000	98.580864
1621.000000	98.582508
1620.000000	98.583609
1619.000000	98.583069
1618.000000	98.581366
1617.000000	98.580836
1616.000000	98.583002
1615.000000	98.586945
1614.000000	98.591446
1613.000000	98.596217
1612.000000	98.601256
1611.000000	98.605748
1610.000000	98.609228
1609.000000	98.612653
1608.000000	98.616503
1607.000000	98.619325
1606.000000	98.620240
1605.000000	98.621030
1604.000000	98.623686
1603.000000	98.628312
1602.000000	98.633595
1601.000000	98.638441
1600.000000	98.642565
1599.000000	98.645951
1598.000000	98.648818
1597.000000	98.651529
1596.000000	98.654255
1595.000000	98.656682
1594.000000	98.658266
1593.000000	98.658707
1592.000000	98.657975
1591.000000	98.656508
1590.000000	98.655697
1589.000000	98.657177
1588.000000	98.660730
1587.000000	98.663933
1586.000000	98.664640
1585.000000	98.663848
1584.000000	98.664052
1583.000000	98.665822
1582.000000	98.668123
1581.000000	98.669944
1580.000000	98.670942
1579.000000	98.670871
1578.000000	98.669641
1577.000000	98.666648
1576.000000	98.661618
1575.000000	98.657197
1574.000000	98.656671
1573.000000	98.658795
1572.000000	98.659749
1571.000000	98.658177
1570.000000	98.656232
1569.000000	98.657330
1568.000000	98.660565
1567.000000	98.662470
1566.000000	98.662530
1565.000000	98.663546
1564.000000	98.666566
1563.000000	98.669418
1562.000000	98.670004
1561.000000	98.669325
1560.000000	98.669908
1559.000000	98.668564
1558.000000	98.664009
1557.000000	98.662420
1556.000000	98.663637
1555.000000	98.662016
1554.000000	98.657711
1553.000000	98.652816
1552.000000	98.648903
1551.000000	98.645212
1550.000000	98.641239
1549.000000	98.637326
1548.000000	98.634210
1547.000000	98.631256
1546.000000	98.627799
1545.000000	98.624285
1544.000000	98.621660
1543.000000	98.620499
1542.000000	98.620586
1541.000000	98.620730
1540.000000	98.617910
1539.000000	98.609293
1538.000000	98.597307
1537.000000	98.585632
1536.000000	98.575784
1535.000000	98.569248
1534.000000	98.566141
1533.000000	98.562790
1532.000000	98.555701
1531.000000	98.546404
1530.000000	98.537192
1529.000000	98.528635
1528.000000	98.520450
1527.000000	98.512502
1526.000000	98.505680
1525.000000	98.500766
1524.000000	98.497202
1523.000000	98.494874
1522.000000	98.494558
1521.000000	98.494787
1520.000000	98.492478
1519.000000	98.487106
1518.000000	98.481300
1517.000000	98.477885
1516.000000	98.476354
1515.000000	98.473408
1514.000000	98.467909
1513.000000	98.461795
1512.000000	98.457656
1511.000000	98.456159
1510.000000	98.455792
1509.000000	98.455296
1508.000000	98.455502
1507.000000	98.456518
1506.000000	98.454597
1505.000000	98.449555
1504.000000	98.443826
1503.000000	98.437412
1502.000000	98.431451
1501.000000	98.428392
1500.000000	98.429389
1499.000000	98.431889
1498.000000	98.431551
1497.000000	98.426194
1496.000000	98.419094
1495.000000	98.414889
1494.000000	98.413424
1493.000000	98.411922
1492.000000	98.409068
1491.000000	98.405758
1490.000000	98.403718
1489.000000	98.403864
1488.000000	98.405634
1487.000000	98.407385
1486.000000	98.407614
1485.000000	98.407854
1484.000000	98.409819
1483.000000	98.412007
1482.000000	98.411980
1481.000000	98.410071
1480.000000	98.410176
1479.000000	98.414925
1478.000000	98.423114
1477.000000	98.431191
1476.000000	98.437177
1475.000000	98.442098
1474.000000	98.448719
1473.000000	98.458724
1472.000000	98.469432
1471.000000	98.476880
1470.000000	98.480078
1469.000000	98.480672
1468.000000	98.481270
1467.000000	98.484034
1466.000000	98.489513
1465.000000	98.496679
1464.000000	98.502931
1463.000000	98.506382
1462.000000	98.506499
1461.000000	98.503468
1460.000000	98.498468
1459.000000	98.493921
1458.000000	98.493716
1457.000000	98.499363
1456.000000	98.507379
1455.000000	98.513356
1454.000000	98.515708
1453.000000	98.514867
1452.000000	98.512797
1451.000000	98.511348
1450.000000	98.510831
1449.000000	98.510357
1448.000000	98.510006
1447.000000	98.510095
1446.000000	98.509819
1445.000000	98.508203
1444.000000	98.505183
1443.000000	98.502645
1442.000000	98.501935
1441.000000	98.502119
1440.000000	98.501233
1439.000000	98.498819
1438.000000	98.496011
1437.000000	98.493472
1436.000000	98.491456
1435.000000	98.491050
1434.000000	98.492923
1433.000000	98.496021
1432.000000	98.498968
1431.000000	98.500685
1430.000000	98.500993
1429.000000	98.500528
1428.000000	98.500519
1427.000000	98.501198
1426.000000	98.501864
1425.000000	98.502818
1424.000000	98.505167
1423.000000	98.510188
1422.000000	98.517554
1421.000000	98.525404
1420.000000	98.531516
1419.000000	98.534822
1418.000000	98.536530
1417.000000	98.537791
1416.000000	98.538660
1415.000000	98.539571
1414.000000	98.541601
1413.000000	98.544846
1412.000000	98.548112
1411.000000	98.550434
1410.000000	98.552074
1409.000000	98.553758
1408.000000	98.556544
1407.000000	98.561149
1406.000000	98.566938
1405.000000	98.572372
1404.000000	98.576315
1403.000000	98.579635
1402.000000	98.583726
1401.000000	98.588720
1400.000000	98.594000
1399.000000	98.599384
1398.000000	98.605258
1397.000000	98.611309
1396.000000	98.616361
1395.000000	98.619317
1394.000000	98.620456
1393.000000	98.621154
1392.000000	98.622444
1391.000000	98.625049
1390.000000	98.629156
1389.000000	98.633596
1388.000000	98.636440
1387.000000	98.637424
1386.000000	98.638626
1385.000000	98.641401
1384.000000	98.644216
1383.000000	98.645128
1382.000000	98.644648
1381.000000	98.645259
1380.000000	98.648443
1379.000000	98.652823
1378.000000	98.655856
1377.000000	98.656388
1376.000000	98.655029
1375.000000	98.652899
1374.000000	98.651131
1373.000000	98.650754
1372.000000	98.652148
1371.000000	98.654793
1370.000000	98.657784
1369.000000	98.660403
1368.000000	98.661957
1367.000000	98.662209
1366.000000	98.661922
1365.000000	98.662564
1364.000000	98.665026
1363.000000	98.668397
1362.000000	98.670470
1361.000000	98.670152
1360.000000	98.668359
1359.000000	98.666512
1358.000000	98.665244
1357.000000	98.664522
1356.000000	98.664251
1355.000000	98.664530
1354.000000	98.665469
1353.000000	98.666818
1352.000000	98.668000
1351.000000	98.668338
1350.000000	98.667596
1349.000000	98.666573
1348.000000	98.666286
1347.000000	98.666889
1346.000000	98.667565
1345.000000	98.667708
1344.000000	98.667541
1343.000000	98.667411
1342.000000	98.666932
1341.000000	98.665434
1340.000000	98.663046
1339.000000	98.660866
1338.000000	98.659874
1337.000000	98.660180
1336.000000	98.661528
1335.000000	98.663836
1334.000000	98.666859
1333.000000	98.669737
1332.000000	98.671362
1331.000000	98.671272
1330.000000	98.670099
1329.000000	98.668934
1328.000000	98.668168
1327.000000	98.667225
1326.000000	98.665679
1325.000000	98.664371
1324.000000	98.664679
1323.000000	98.666884
1322.000000	98.669580
1321.000000	98.670945
1320.000000	98.670235
1319.000000	98.668039
1318.000000	98.665529
1317.000000	98.663841
1316.000000	98.663835
1315.000000	98.665614
1314.000000	98.668054
1313.000000	98.669464
1312.000000	98.669230
1311.000000	98.668353
1310.000000	98.667916
1309.000000	98.667360
1308.000000	98.665003
1307.000000	98.660221
1306.000000	98.654580
1305.000000	98.650488
1304.000000	98.648689
1303.000000	98.647567
1302.000000	98.645066
1301.000000	98.641225
1300.000000	98.638351
1299.000000	98.638275
1298.000000	98.639626
1297.000000	98.638700
1296.000000	98.633384
1295.000000	98.625579
1294.000000	98.619266
1293.000000	98.616286
1292.000000	98.614837
1291.000000	98.611877
1290.000000	98.606105
1289.000000	98.598625
1288.000000	98.591663
1287.000000	98.587085
1286.000000	98.585363
1285.000000	98.585152
1284.000000	98.584033
1283.000000	98.580381
1282.000000	98.574794
1281.000000	98.569533
1280.000000	98.566307
1279.000000	98.564467
1278.000000	98.561374
1277.000000	98.554775
1276.000000	98.545184
1275.000000	98.535953
1274.000000	98.530468
1273.000000	98.528856
1272.000000	98.527755
1271.000000	98.523895
1270.000000	98.517882
1269.000000	98.513744
1268.000000	98.514480
1267.000000	98.518733
1266.000000	98.522335
1265.000000	98.522491
1264.000000	98.519560
1263.000000	98.515195
1262.000000	98.510255
1261.000000	98.505087
1260.000000	98.500487
1259.000000	98.496993
1258.000000	98.493570
1257.000000	98.488066
1256.000000	98.479179
1255.000000	98.467531
1254.000000	98.454883
1253.000000	98.442597
1252.000000	98.430683
1251.000000	98.417898
1250.000000	98.402952
1249.000000	98.385969
1248.000000	98.368532
1247.000000	98.352044
1246.000000	98.336568
1245.000000	98.321736
1244.000000	98.308100
1243.000000	98.296475
1242.000000	98.286246
1241.000000	98.275463
1240.000000	98.262661
1239.000000	98.248009
1238.000000	98.233117
1237.000000	98.220356
1236.000000	98.211345
1235.000000	98.204524
1234.000000	98.194847
1233.000000	98.177657
1232.000000	98.152634
1231.000000	98.122805
1230.000000	98.090607
1229.000000	98.057045
1228.000000	98.024153
1227.000000	97.994755
1226.000000	97.968407
1225.000000	97.940135
1224.000000	97.904935
1223.000000	97.861914
1222.000000	97.812953
1221.000000	97.759412
1220.000000	97.701926
1219.000000	97.641800
1218.000000	97.580378
1217.000000	97.517502
1216.000000	97.451928
1215.000000	97.382626
1214.000000	97.309015
1213.000000	97.231203
1212.000000	97.150975
1211.000000	97.071319
1210.000000	96.994035
1209.000000	96.918943
1208.000000	96.845646
1207.000000	96.774038
1206.000000	96.702843
1205.000000	96.630386
1204.000000	96.557597
1203.000000	96.487680
1202.000000	96.422008
1201.000000	96.358696
1200.000000	96.295548
1199.000000	96.231529
1198.000000	96.165173
1197.000000	96.095249
1196.000000	96.024085
1195.000000	95.956585
1194.000000	95.894249
1193.000000	95.833035
1192.000000	95.768239
1191.000000	95.698406
1190.000000	95.623575
1189.000000	95.543479
1188.000000	95.459348
1187.000000	95.374532
1186.000000	95.291492
1185.000000	95.210271
1184.000000	95.130113
1183.000000	95.049052
1182.000000	94.961888
1181.000000	94.863693
1180.000000	94.756803
1179.000000	94.649598
1178.000000	94.546313
1177.000000	94.442628
1176.000000	94.333235
1175.000000	94.218655
1174.000000	94.102071
1173.000000	93.984769
1172.000000	93.868187
1171.000000	93.755712
1170.000000	93.648614
1169.000000	93.544359
1168.000000	93.442572
1167.000000	93.348907
1166.000000	93.270177
1165.000000	93.210081
1164.000000	93.172523
1163.000000	93.163620
1162.000000	93.185530
1161.000000	93.230808
1160.000000	93.285124
1159.000000	93.332787
1158.000000	93.359312
1157.000000	93.354574
1156.000000	93.317650
1155.000000	93.256493
1154.000000	93.180439
1153.000000	93.094662
1152.000000	93.002618
1151.000000	92.909228
1150.000000	92.818318
1149.000000	92.730112
1148.000000	92.644006
1147.000000	92.560800
1146.000000	92.480222
1145.000000	92.399934
1144.000000	92.319300
1143.000000	92.240732
1142.000000	92.165290
1141.000000	92.090349
1140.000000	92.013406
1139.000000	91.934871
1138.000000	91.856014
1137.000000	91.777804
1136.000000	91.702277
1135.000000	91.630321
1134.000000	91.557535
1133.000000	91.477767
1132.000000	91.391863
1131.000000	91.307252
1130.000000	91.227708
1129.000000	91.149735
1128.000000	91.070669
1127.000000	90.993437
1126.000000	90.920398
1125.000000	90.848698
1124.000000	90.774986
1123.000000	90.699551
1122.000000	90.623456
1121.000000	90.547018
1120.000000	90.472818
1119.000000	90.403962
1118.000000	90.337546
1117.000000	90.266682
1116.000000	90.190775
1115.000000	90.116627
1114.000000	90.047369
1113.000000	89.978234
1112.000000	89.905798
1111.000000	89.833251
1110.000000	89.763695
1109.000000	89.696241
1108.000000	89.631433
1107.000000	89.572582
1106.000000	89.518723
1105.000000	89.463634
1104.000000	89.404427
1103.000000	89.344323
1102.000000	89.285839
1101.000000	89.229108
1100.000000	89.177411
1099.000000	89.134596
1098.000000	89.095260
1097.000000	89.048092
1096.000000	88.991945
1095.000000	88.938600
1094.000000	88.896314
1093.000000	88.860635
1092.000000	88.825259
1091.000000	88.792091
1090.000000	88.765561
1089.000000	88.745653
1088.000000	88.731401
1087.000000	88.723642
1086.000000	88.720220
1085.000000	88.715910
1084.000000	88.710646
1083.000000	88.710764
1082.000000	88.719253
1081.000000	88.731838
1080.000000	88.744920
1079.000000	88.759807
1078.000000	88.776776
1077.000000	88.792481
1076.000000	88.805304
1075.000000	88.815647
1074.000000	88.818939
1073.000000	88.805941
1072.000000	88.771951
1071.000000	88.719104
1070.000000	88.648977
1069.000000	88.560159
1068.000000	88.453868
1067.000000	88.333844
1066.000000	88.199753
1065.000000	88.049692
1064.000000	87.891131
1063.000000	87.739918
1062.000000	87.605167
1061.000000	87.483678
1060.000000	87.371707
1059.000000	87.272743
1058.000000	87.190455
1057.000000	87.122489
1056.000000	87.063958
1055.000000	87.009329
1054.000000	86.950060
1053.000000	86.880001
1052.000000	86.804675
1051.000000	86.734834
1050.000000	86.669458
1049.000000	86.597438
1048.000000	86.516913
1047.000000	86.438257
1046.000000	86.366493
1045.000000	86.295306
1044.000000	86.220357
1043.000000	86.145256
1042.000000	86.071557
1041.000000	85.994969
1040.000000	85.915517
1039.000000	85.840993
1038.000000	85.776608
1037.000000	85.720545
1036.000000	85.671727
1035.000000	85.631932
1034.000000	85.598834
1033.000000	85.568029
1032.000000	85.543276
1031.000000	85.532798
1030.000000	85.533694
1029.000000	85.532417
1028.000000	85.523631
1027.000000	85.516546
1026.000000	85.519421
1025.000000	85.529822
1024.000000	85.543371
1023.000000	85.559952
1022.000000	85.577013
1021.000000	85.587872
1020.000000	85.591365
1019.000000	85.593989
1018.000000	85.599476
1017.000000	85.605257
1016.000000	85.610631
1015.000000	85.618032
1014.000000	85.624689
1013.000000	85.624353
1012.000000	85.619798
1011.000000	85.622682
1010.000000	85.638271
1009.000000	85.660604
1008.000000	85.684660
1007.000000	85.712347
1006.000000	85.744037
1005.000000	85.775565
1004.000000	85.807253
1003.000000	85.845633
1002.000000	85.892699
1001.000000	85.942876
1000.000000	85.993282
999.000000	86.047236
998.000000	86.104882
997.000000	86.160624
996.000000	86.213565
995.000000	86.271001
994.000000	86.337377
993.000000	86.408097
992.000000	86.477888
991.000000	86.547839
990.000000	86.620902
989.000000	86.697362
988.000000	86.777450
987.000000	86.862274
986.000000	86.950829
985.000000	87.042098
984.000000	87.139974
983.000000	87.248978
982.000000	87.365449
981.000000	87.480918
980.000000	87.593778
979.000000	87.709013
978.000000	87.826873
977.000000	87.941777
976.000000	88.053554
975.000000	88.170306
974.000000	88.297725
973.000000	88.433433
972.000000	88.573464
971.000000	88.716420
970.000000	88.859193
969.000000	88.996067
968.000000	89.124775
967.000000	89.248080
966.000000	89.368359
965.000000	89.485921
964.000000	89.602692
963.000000	89.721187
962.000000	89.839418
961.000000	89.953146
960.000000	90.063756
959.000000	90.177808
958.000000	90.297791
957.000000	90.418448
956.000000	90.532704
955.000000	90.636605
954.000000	90.729327
953.000000	90.813733
952.000000	90.896303
951.000000	90.981417
950.000000	91.066703
949.000000	91.148471
948.000000	91.228593
947.000000	91.309688
946.000000	91.386888
945.000000	91.452943
944.000000	91.509693
943.000000	91.566007
942.000000	91.625067
941.000000	91.682479
940.000000	91.737212
939.000000	91.795088
938.000000	91.859447
937.000000	91.926213
936.000000	91.990782
935.000000	92.053382
934.000000	92.115762
933.000000	92.178453
932.000000	92.242899
931.000000	92.310887
930.000000	92.380587
929.000000	92.447944
928.000000	92.512326
927.000000	92.575919
926.000000	92.637970
925.000000	92.695060
924.000000	92.746582
923.000000	92.794531
922.000000	92.839081
921.000000	92.880473
920.000000	92.923788
919.000000	92.974420
918.000000	93.029431
917.000000	93.080911
916.000000	93.127504
915.000000	93.174700
914.000000	93.224253
913.000000	93.272774
912.000000	93.322026
911.000000	93.380856
910.000000	93.453302
909.000000	93.532927
908.000000	93.612918
907.000000	93.694958
906.000000	93.783631
905.000000	93.877995
904.000000	93.973327
903.000000	94.067217
902.000000	94.160576
901.000000	94.255626
900.000000	94.354781
899.000000	94.458223
898.000000	94.561219
897.000000	94.657169
896.000000	94.743915
895.000000	94.824247
894.000000	94.901072
893.000000	94.976156
892.000000	95.052682
891.000000	95.133278
890.000000	95.214888
889.000000	95.290951
888.000000	95.359341
887.000000	95.423289
886.000000	95.484271
885.000000	95.539663
884.000000	95.588349
883.000000	95.632522
882.000000	95.672417
881.000000	95.705833
880.000000	95.735564
879.000000	95.770417
878.000000	95.814215
877.000000	95.859804
876.000000	95.899976
875.000000	95.939901
874.000000	95.992182
873.000000	96.061422
872.000000	96.138949
871.000000	96.212369
870.000000	96.277346
869.000000	96.340069
868.000000	96.409965
867.000000	96.489895
866.000000	96.572609
865.000000	96.647069
864.000000	96.708027
863.000000	96.759103
862.000000	96.808209
861.000000	96.861644
860.000000	96.920970
859.000000	96.982820
858.000000	97.042650
857.000000	97.100965
856.000000	97.163917
855.000000	97.234452
854.000000	97.305045
853.000000	97.363820
852.000000	97.406577
851.000000	97.438504
850.000000	97.466080
849.000000	97.493071
848.000000	97.523244
847.000000	97.559323
846.000000	97.597455
845.000000	97.629128
844.000000	97.651128
843.000000	97.668520
842.000000	97.685732
841.000000	97.700354
840.000000	97.708951
839.000000	97.713473
838.000000	97.717134
837.000000	97.718021
836.000000	97.712422
835.000000	97.702595
834.000000	97.696234
833.000000	97.698462
832.000000	97.707864
831.000000	97.720084
830.000000	97.732341
829.000000	97.744355
828.000000	97.757168
827.000000	97.771266
826.000000	97.784167
825.000000	97.790012
824.000000	97.783323
823.000000	97.763443
822.000000	97.734136
821.000000	97.698512
820.000000	97.654906
819.000000	97.597760
818.000000	97.522611
817.000000	97.430450
816.000000	97.326284
815.000000	97.212198
814.000000	97.082237
813.000000	96.925083
812.000000	96.730019
811.000000	96.488091
810.000000	96.190176
809.000000	95.829955
808.000000	95.410865
807.000000	94.946908
806.000000	94.454874
805.000000	93.948944
804.000000	93.444079
803.000000	92.959245
802.000000	92.514533
801.000000	92.129858
800.000000	91.826553
799.000000	91.620477
798.000000	91.509564
797.000000	91.475755
796.000000	91.501107
795.000000	91.573992
794.000000	91.680377
793.000000	91.801442
792.000000	91.922600
791.000000	92.034538
790.000000	92.122925
789.000000	92.167503
788.000000	92.155628
787.000000	92.089071
786.000000	91.974714
785.000000	91.816989
784.000000	91.623855
783.000000	91.412368
782.000000	91.202601
781.000000	91.011837
780.000000	90.858240
779.000000	90.761578
778.000000	90.733418
777.000000	90.771459
776.000000	90.866560
775.000000	91.008952
774.000000	91.185664
773.000000	91.380283
772.000000	91.579558
771.000000	91.775613
770.000000	91.961367
769.000000	92.130786
768.000000	92.284753
767.000000	92.429785
766.000000	92.569340
765.000000	92.702408
764.000000	92.830880
763.000000	92.960195
762.000000	93.090666
761.000000	93.216058
760.000000	93.333885
759.000000	93.450048
758.000000	93.569442
757.000000	93.688006
756.000000	93.798311
755.000000	93.898418
754.000000	93.991880
753.000000	94.083065
752.000000	94.175225
751.000000	94.269079
750.000000	94.360475
749.000000	94.443048
748.000000	94.515838
747.000000	94.585667
746.000000	94.660490
745.000000	94.742955
744.000000	94.830579
743.000000	94.918121
742.000000	94.999489
741.000000	95.072305
740.000000	95.141805
739.000000	95.216002
738.000000	95.296028
737.000000	95.375245
736.000000	95.447794
735.000000	95.512470
734.000000	95.568214
733.000000	95.612614
732.000000	95.647084
731.000000	95.678442
730.000000	95.712453
729.000000	95.749040
728.000000	95.784666
727.000000	95.816423
726.000000	95.843991
725.000000	95.870855
724.000000	95.904163
723.000000	95.949676
722.000000	96.005709
721.000000	96.064813
720.000000	96.121428
719.000000	96.174625
718.000000	96.223843
717.000000	96.266874
716.000000	96.303395
715.000000	96.336519
714.000000	96.369253
713.000000	96.401887
712.000000	96.432729
711.000000	96.458508
710.000000	96.475034
709.000000	96.482105
708.000000	96.487073
707.000000	96.497620
706.000000	96.510245
705.000000	96.509235
704.000000	96.477259
703.000000	96.404322
702.000000	96.286632
701.000000	96.122276
700.000000	95.910605
699.000000	95.653403
698.000000	95.361182
697.000000	95.064900
696.000000	94.817192
695.000000	94.669353
694.000000	94.640769
693.000000	94.714081
692.000000	94.856761
691.000000	95.039324
690.000000	95.236931
689.000000	95.426962
688.000000	95.594333
687.000000	95.736098
686.000000	95.855498
685.000000	95.957023
684.000000	96.048973
683.000000	96.140281
682.000000	96.230237
681.000000	96.308981
680.000000	96.372876
679.000000	96.431259
678.000000	96.493120
677.000000	96.557020
676.000000	96.617053
675.000000	96.670596
674.000000	96.718320
673.000000	96.761178
672.000000	96.800124
671.000000	96.836743
670.000000	96.871307
669.000000	96.909338
668.000000	96.972914
667.000000	97.055584
666.000000	97.116189
665.000000	97.155585
664.000000	97.191376
663.000000	97.232801
662.000000	97.278475
661.000000	97.319160
660.000000	97.346664
659.000000	97.361164
658.000000	97.369815
657.000000	97.380561
656.000000	97.395882
655.000000	97.410670
654.000000	97.416415
653.000000	97.406003
652.000000	97.379482
651.000000	97.351241
650.000000	97.343412
649.000000	97.364813
648.000000	97.402652
647.000000	97.441742
646.000000	97.486377
645.000000	97.551666
644.000000	97.638303
643.000000	97.726531
642.000000	97.794141
641.000000	97.836581
640.000000	97.864611
639.000000	97.892452
638.000000	97.934585
637.000000	98.001164
636.000000	98.085413
635.000000	98.160801
634.000000	98.203170
633.000000	98.216912
632.000000	98.230281
631.000000	98.265448
630.000000	98.318635
629.000000	98.370604
628.000000	98.411646
627.000000	98.451968
626.000000	98.508793
625.000000	98.583172
624.000000	98.653163
623.000000	98.692262
622.000000	98.694697
621.000000	98.679039
620.000000	98.666185
619.000000	98.662239
618.000000	98.662194
617.000000	98.662340
616.000000	98.664748
615.000000	98.672219
614.000000	98.683278
613.000000	98.692209
612.000000	98.692371
611.000000	98.680752
610.000000	98.661178
609.000000	98.641047
608.000000	98.622189
607.000000	98.596253
606.000000	98.554937
605.000000	98.508487
604.000000	98.490011
603.000000	98.529301
602.000000	98.614291
601.000000	98.686435
600.000000	98.688538
599.000000	98.616398
598.000000	98.520214
597.000000	98.451759
596.000000	98.421691
595.000000	98.414248
594.000000	98.418783
593.000000	98.432744
592.000000	98.444787
591.000000	98.437464
590.000000	98.411316
589.000000	98.387393
588.000000	98.380141
587.000000	98.384553
586.000000	98.394263
585.000000	98.417429
584.000000	98.460800
583.000000	98.509049
582.000000	98.542372
581.000000	98.572494
580.000000	98.632902
579.000000	98.723995
578.000000	98.792743
577.000000	98.787976
576.000000	98.715834
575.000000	98.635485
574.000000	98.604934
573.000000	98.634139
572.000000	98.694189
571.000000	98.747030
570.000000	98.766826
569.000000	98.751095
568.000000	98.713659
567.000000	98.665580
566.000000	98.605554
565.000000	98.533177
564.000000	98.466990
563.000000	98.436769
562.000000	98.447085
561.000000	98.462850
560.000000	98.449668
559.000000	98.417080
558.000000	98.405168
557.000000	98.432658
556.000000	98.479540
555.000000	98.520089
554.000000	98.552780
553.000000	98.588947
552.000000	98.624612
551.000000	98.641013
550.000000	98.632810
