PE IR       SUBTECH     SPECTRUM    ASCII       PEDS        4.00        
   -1
BH1 8-2 5 95_1.asc
24/05/15
14:47:46.00
24/05/15
14:49:24.00
Administrator
?品 095 用? Administrator 日期 Wednesday, May 15 2024
550.000000
#HDR
-1
-1
#GR
cm-1
%T
1.0
0.0
4000.000000
-1.000000
3451
8
101.566403
73.682744
#DATA
4000.000000	101.295056
3999.000000	101.294558
3998.000000	101.291954
3997.000000	101.287642
3996.000000	101.283305
3995.000000	101.280305
3994.000000	101.278737
3993.000000	101.277713
3992.000000	101.276356
3991.000000	101.274718
3990.000000	101.273665
3989.000000	101.273982
3988.000000	101.275623
3987.000000	101.277644
3986.000000	101.278927
3985.000000	101.279085
3984.000000	101.278652
3983.000000	101.278495
3982.000000	101.279005
3981.000000	101.279719
3980.000000	101.279652
3979.000000	101.278084
3978.000000	101.275148
3977.000000	101.271853
3976.000000	101.269522
3975.000000	101.268915
3974.000000	101.269818
3973.000000	101.271355
3972.000000	101.272761
3971.000000	101.273832
3970.000000	101.274684
3969.000000	101.275281
3968.000000	101.275313
3967.000000	101.274581
3966.000000	101.273330
3965.000000	101.272129
3964.000000	101.271461
3963.000000	101.271493
3962.000000	101.272143
3961.000000	101.273155
3960.000000	101.274121
3959.000000	101.274608
3958.000000	101.274410
3957.000000	101.273712
3956.000000	101.273015
3955.000000	101.272827
3954.000000	101.273310
3953.000000	101.274244
3952.000000	101.275208
3951.000000	101.275853
3950.000000	101.276124
3949.000000	101.276273
3948.000000	101.276631
3947.000000	101.277280
3946.000000	101.277946
3945.000000	101.278279
3944.000000	101.278212
3943.000000	101.278019
3942.000000	101.277907
3941.000000	101.277695
3940.000000	101.277164
3939.000000	101.276590
3938.000000	101.276613
3937.000000	101.277621
3936.000000	101.279374
3935.000000	101.281234
3934.000000	101.282620
3933.000000	101.283084
3932.000000	101.282272
3931.000000	101.280230
3930.000000	101.277834
3929.000000	101.276381
3928.000000	101.276479
3927.000000	101.277562
3926.000000	101.278667
3925.000000	101.279678
3924.000000	101.281265
3923.000000	101.283664
3922.000000	101.286259
3921.000000	101.288212
3920.000000	101.288990
3919.000000	101.288534
3918.000000	101.287238
3917.000000	101.285658
3916.000000	101.283999
3915.000000	101.282024
3914.000000	101.279701
3913.000000	101.277618
3912.000000	101.276465
3911.000000	101.276466
3910.000000	101.277385
3909.000000	101.278914
3908.000000	101.280632
3907.000000	101.281903
3906.000000	101.282268
3905.000000	101.282252
3904.000000	101.283064
3903.000000	101.285036
3902.000000	101.286994
3901.000000	101.287644
3900.000000	101.286964
3899.000000	101.285938
3898.000000	101.285423
3897.000000	101.285648
3896.000000	101.286574
3895.000000	101.288010
3894.000000	101.289438
3893.000000	101.290266
3892.000000	101.290465
3891.000000	101.290635
3890.000000	101.291008
3889.000000	101.291185
3888.000000	101.290830
3887.000000	101.290115
3886.000000	101.289572
3885.000000	101.289466
3884.000000	101.289404
3883.000000	101.288972
3882.000000	101.288320
3881.000000	101.287954
3880.000000	101.288123
3879.000000	101.288530
3878.000000	101.288688
3877.000000	101.288445
3876.000000	101.287983
3875.000000	101.287658
3874.000000	101.287726
3873.000000	101.288095
3872.000000	101.288453
3871.000000	101.288703
3870.000000	101.289053
3869.000000	101.289542
3868.000000	101.289787
3867.000000	101.289545
3866.000000	101.289066
3865.000000	101.288824
3864.000000	101.288956
3863.000000	101.289135
3862.000000	101.288998
3861.000000	101.288509
3860.000000	101.287868
3859.000000	101.287303
3858.000000	101.286921
3857.000000	101.286681
3856.000000	101.286382
3855.000000	101.285842
3854.000000	101.285394
3853.000000	101.285634
3852.000000	101.286278
3851.000000	101.286534
3850.000000	101.286332
3849.000000	101.286043
3848.000000	101.285932
3847.000000	101.286012
3846.000000	101.286209
3845.000000	101.286522
3844.000000	101.287043
3843.000000	101.287779
3842.000000	101.288541
3841.000000	101.289071
3840.000000	101.289271
3839.000000	101.289254
3838.000000	101.289240
3837.000000	101.289371
3836.000000	101.289626
3835.000000	101.289922
3834.000000	101.290209
3833.000000	101.290490
3832.000000	101.290774
3831.000000	101.291038
3830.000000	101.291234
3829.000000	101.291342
3828.000000	101.291385
3827.000000	101.291408
3826.000000	101.291435
3825.000000	101.291466
3824.000000	101.291491
3823.000000	101.291503
3822.000000	101.291494
3821.000000	101.291464
3820.000000	101.291412
3819.000000	101.291328
3818.000000	101.291204
3817.000000	101.291048
3816.000000	101.290883
3815.000000	101.290729
3814.000000	101.290589
3813.000000	101.290462
3812.000000	101.290341
3811.000000	101.290216
3810.000000	101.290075
3809.000000	101.289911
3808.000000	101.289730
3807.000000	101.289536
3806.000000	101.289326
3805.000000	101.289078
3804.000000	101.288766
3803.000000	101.288382
3802.000000	101.287939
3801.000000	101.287460
3800.000000	101.286962
3799.000000	101.286456
3798.000000	101.285958
3797.000000	101.285487
3796.000000	101.285056
3795.000000	101.284663
3794.000000	101.284297
3793.000000	101.283949
3792.000000	101.283608
3791.000000	101.283241
3790.000000	101.282836
3789.000000	101.282423
3788.000000	101.282055
3787.000000	101.281757
3786.000000	101.281509
3785.000000	101.281350
3784.000000	101.281371
3783.000000	101.281511
3782.000000	101.281485
3781.000000	101.281048
3780.000000	101.280343
3779.000000	101.279829
3778.000000	101.279572
3777.000000	101.279084
3776.000000	101.278247
3775.000000	101.277869
3774.000000	101.278809
3773.000000	101.280978
3772.000000	101.283384
3771.000000	101.285284
3770.000000	101.286743
3769.000000	101.287823
3768.000000	101.287815
3767.000000	101.286243
3766.000000	101.283805
3765.000000	101.281682
3764.000000	101.280080
3763.000000	101.278256
3762.000000	101.276100
3761.000000	101.274704
3760.000000	101.274914
3759.000000	101.276409
3758.000000	101.278471
3757.000000	101.281037
3756.000000	101.284366
3755.000000	101.288535
3754.000000	101.293443
3753.000000	101.298152
3752.000000	101.300127
3751.000000	101.297562
3750.000000	101.292584
3749.000000	101.289056
3748.000000	101.287567
3747.000000	101.285817
3746.000000	101.282708
3745.000000	101.281155
3744.000000	101.284571
3743.000000	101.289917
3742.000000	101.291750
3741.000000	101.290068
3740.000000	101.288108
3739.000000	101.287674
3738.000000	101.287415
3737.000000	101.285461
3736.000000	101.282156
3735.000000	101.279053
3734.000000	101.276329
3733.000000	101.273383
3732.000000	101.270708
3731.000000	101.268838
3730.000000	101.267041
3729.000000	101.264352
3728.000000	101.260935
3727.000000	101.257859
3726.000000	101.255669
3725.000000	101.253845
3724.000000	101.252433
3723.000000	101.252509
3722.000000	101.254181
3721.000000	101.255113
3720.000000	101.252164
3719.000000	101.244351
3718.000000	101.233925
3717.000000	101.224913
3716.000000	101.220019
3715.000000	101.219387
3714.000000	101.220822
3713.000000	101.220874
3712.000000	101.217644
3711.000000	101.212687
3710.000000	101.207766
3709.000000	101.202488
3708.000000	101.196241
3707.000000	101.189875
3706.000000	101.184365
3705.000000	101.179001
3704.000000	101.172297
3703.000000	101.164343
3702.000000	101.158053
3701.000000	101.155959
3700.000000	101.156316
3699.000000	101.154886
3698.000000	101.149980
3697.000000	101.143546
3696.000000	101.138093
3695.000000	101.134354
3694.000000	101.132490
3693.000000	101.133212
3692.000000	101.135371
3691.000000	101.134228
3690.000000	101.124597
3689.000000	101.107184
3688.000000	101.088114
3687.000000	101.071862
3686.000000	101.058949
3685.000000	101.049122
3684.000000	101.042711
3683.000000	101.038534
3682.000000	101.033257
3681.000000	101.024767
3680.000000	101.014887
3679.000000	101.005504
3678.000000	100.994405
3677.000000	100.978052
3676.000000	100.960566
3675.000000	100.951401
3674.000000	100.948083
3673.000000	100.938488
3672.000000	100.917407
3671.000000	100.889369
3670.000000	100.864874
3669.000000	100.850293
3668.000000	100.840748
3667.000000	100.828797
3666.000000	100.811901
3665.000000	100.790769
3664.000000	100.766892
3663.000000	100.742406
3662.000000	100.720033
3661.000000	100.701762
3660.000000	100.687223
3659.000000	100.674122
3658.000000	100.661005
3657.000000	100.649085
3656.000000	100.640553
3655.000000	100.634027
3654.000000	100.626294
3653.000000	100.617112
3652.000000	100.608016
3651.000000	100.595864
3650.000000	100.572822
3649.000000	100.537324
3648.000000	100.500536
3647.000000	100.474775
3646.000000	100.460575
3645.000000	100.449731
3644.000000	100.435026
3643.000000	100.415633
3642.000000	100.394978
3641.000000	100.376001
3640.000000	100.358876
3639.000000	100.343310
3638.000000	100.330077
3637.000000	100.318994
3636.000000	100.308292
3635.000000	100.297335
3634.000000	100.288194
3633.000000	100.281874
3632.000000	100.275225
3631.000000	100.263168
3630.000000	100.244343
3629.000000	100.225749
3628.000000	100.213826
3627.000000	100.204555
3626.000000	100.195185
3625.000000	100.190244
3624.000000	100.193111
3623.000000	100.201123
3622.000000	100.209248
3621.000000	100.216588
3620.000000	100.227688
3619.000000	100.246119
3618.000000	100.267654
3617.000000	100.283822
3616.000000	100.291789
3615.000000	100.296482
3614.000000	100.305326
3613.000000	100.321432
3612.000000	100.341310
3611.000000	100.359732
3610.000000	100.375547
3609.000000	100.391321
3608.000000	100.408570
3607.000000	100.424906
3606.000000	100.436387
3605.000000	100.441680
3604.000000	100.442606
3603.000000	100.442102
3602.000000	100.443661
3601.000000	100.450701
3600.000000	100.464429
3599.000000	100.481972
3598.000000	100.498150
3597.000000	100.508190
3596.000000	100.509804
3595.000000	100.504771
3594.000000	100.498930
3593.000000	100.497987
3592.000000	100.503273
3591.000000	100.511627
3590.000000	100.518005
3589.000000	100.519238
3588.000000	100.516762
3587.000000	100.514852
3586.000000	100.514826
3585.000000	100.514855
3584.000000	100.513833
3583.000000	100.511543
3582.000000	100.507612
3581.000000	100.502296
3580.000000	100.497276
3579.000000	100.493903
3578.000000	100.491469
3577.000000	100.488139
3576.000000	100.483772
3575.000000	100.480861
3574.000000	100.481914
3573.000000	100.486560
3572.000000	100.491470
3571.000000	100.493066
3570.000000	100.489574
3569.000000	100.481713
3568.000000	100.472484
3567.000000	100.465992
3566.000000	100.464160
3565.000000	100.465340
3564.000000	100.466642
3563.000000	100.465736
3562.000000	100.461504
3561.000000	100.455087
3560.000000	100.449786
3559.000000	100.448491
3558.000000	100.450872
3557.000000	100.453577
3556.000000	100.453189
3555.000000	100.449021
3554.000000	100.443367
3553.000000	100.439467
3552.000000	100.438744
3551.000000	100.439982
3550.000000	100.440964
3549.000000	100.440527
3548.000000	100.438858
3547.000000	100.436563
3546.000000	100.434019
3545.000000	100.431497
3544.000000	100.429343
3543.000000	100.427850
3542.000000	100.427089
3541.000000	100.427038
3540.000000	100.427738
3539.000000	100.429298
3538.000000	100.431693
3537.000000	100.434569
3536.000000	100.437181
3535.000000	100.438606
3534.000000	100.438278
3533.000000	100.436288
3532.000000	100.433356
3531.000000	100.430484
3530.000000	100.428631
3529.000000	100.428460
3528.000000	100.430058
3527.000000	100.432677
3526.000000	100.435044
3525.000000	100.436201
3524.000000	100.435929
3523.000000	100.434564
3522.000000	100.432663
3521.000000	100.430905
3520.000000	100.430049
3519.000000	100.430580
3518.000000	100.432290
3517.000000	100.434368
3516.000000	100.436078
3515.000000	100.437309
3514.000000	100.438490
3513.000000	100.440006
3512.000000	100.441827
3511.000000	100.443576
3510.000000	100.444866
3509.000000	100.445474
3508.000000	100.445315
3507.000000	100.444398
3506.000000	100.442980
3505.000000	100.441682
3504.000000	100.441203
3503.000000	100.441775
3502.000000	100.442996
3501.000000	100.444282
3500.000000	100.445393
3499.000000	100.446368
3498.000000	100.447129
3497.000000	100.447398
3496.000000	100.447080
3495.000000	100.446612
3494.000000	100.446792
3493.000000	100.448134
3492.000000	100.450312
3491.000000	100.452181
3490.000000	100.452547
3489.000000	100.451061
3488.000000	100.448476
3487.000000	100.446122
3486.000000	100.445082
3485.000000	100.445863
3484.000000	100.448473
3483.000000	100.452210
3482.000000	100.455527
3481.000000	100.456767
3480.000000	100.455368
3479.000000	100.452266
3478.000000	100.449049
3477.000000	100.446757
3476.000000	100.445452
3475.000000	100.444590
3474.000000	100.443673
3473.000000	100.442743
3472.000000	100.442302
3471.000000	100.442591
3470.000000	100.442907
3469.000000	100.442064
3468.000000	100.439677
3467.000000	100.436611
3466.000000	100.433931
3465.000000	100.431787
3464.000000	100.429611
3463.000000	100.427021
3462.000000	100.424114
3461.000000	100.421078
3460.000000	100.418018
3459.000000	100.415151
3458.000000	100.412763
3457.000000	100.410912
3456.000000	100.409423
3455.000000	100.408195
3454.000000	100.407335
3453.000000	100.406875
3452.000000	100.406529
3451.000000	100.405728
3450.000000	100.403966
3449.000000	100.401179
3448.000000	100.397889
3447.000000	100.394866
3446.000000	100.392398
3445.000000	100.390041
3444.000000	100.387311
3443.000000	100.384475
3442.000000	100.382374
3441.000000	100.381434
3440.000000	100.381110
3439.000000	100.380328
3438.000000	100.378392
3437.000000	100.375391
3436.000000	100.371999
3435.000000	100.368984
3434.000000	100.366734
3433.000000	100.365113
3432.000000	100.363763
3431.000000	100.362567
3430.000000	100.361766
3429.000000	100.361498
3428.000000	100.361293
3427.000000	100.360252
3426.000000	100.357826
3425.000000	100.354388
3424.000000	100.351140
3423.000000	100.349213
3422.000000	100.348846
3421.000000	100.349303
3420.000000	100.349484
3419.000000	100.348852
3418.000000	100.347776
3417.000000	100.347046
3416.000000	100.347037
3415.000000	100.347364
3414.000000	100.347317
3413.000000	100.346520
3412.000000	100.345070
3411.000000	100.343195
3410.000000	100.341082
3409.000000	100.339030
3408.000000	100.337516
3407.000000	100.336961
3406.000000	100.337530
3405.000000	100.339155
3404.000000	100.341542
3403.000000	100.344037
3402.000000	100.345800
3401.000000	100.346398
3400.000000	100.346219
3399.000000	100.346170
3398.000000	100.346842
3397.000000	100.347953
3396.000000	100.348667
3395.000000	100.348496
3394.000000	100.347853
3393.000000	100.347698
3392.000000	100.348565
3391.000000	100.350058
3390.000000	100.351333
3389.000000	100.352007
3388.000000	100.352429
3387.000000	100.353110
3386.000000	100.354092
3385.000000	100.355008
3384.000000	100.355659
3383.000000	100.356315
3382.000000	100.357386
3381.000000	100.359024
3380.000000	100.361061
3379.000000	100.363111
3378.000000	100.364753
3377.000000	100.365781
3376.000000	100.366413
3375.000000	100.367198
3374.000000	100.368516
3373.000000	100.370210
3372.000000	100.371753
3371.000000	100.372788
3370.000000	100.373407
3369.000000	100.374019
3368.000000	100.374991
3367.000000	100.376427
3366.000000	100.378200
3365.000000	100.380061
3364.000000	100.381792
3363.000000	100.383327
3362.000000	100.384734
3361.000000	100.386137
3360.000000	100.387630
3359.000000	100.389242
3358.000000	100.390953
3357.000000	100.392689
3356.000000	100.394318
3355.000000	100.395700
3354.000000	100.396802
3353.000000	100.397776
3352.000000	100.398930
3351.000000	100.400533
3350.000000	100.402635
3349.000000	100.405022
3348.000000	100.407360
3347.000000	100.409425
3346.000000	100.411100
3345.000000	100.412263
3344.000000	100.412850
3343.000000	100.413070
3342.000000	100.413420
3341.000000	100.414339
3340.000000	100.415870
3339.000000	100.417706
3338.000000	100.419489
3337.000000	100.421080
3336.000000	100.422545
3335.000000	100.424010
3334.000000	100.425559
3333.000000	100.427180
3332.000000	100.428734
3331.000000	100.430010
3330.000000	100.430897
3329.000000	100.431517
3328.000000	100.432221
3327.000000	100.433399
3326.000000	100.435219
3325.000000	100.437489
3324.000000	100.439680
3323.000000	100.441248
3322.000000	100.442034
3321.000000	100.442388
3320.000000	100.442908
3319.000000	100.443891
3318.000000	100.445114
3317.000000	100.446206
3316.000000	100.447177
3315.000000	100.448479
3314.000000	100.450521
3313.000000	100.453295
3312.000000	100.456426
3311.000000	100.459394
3310.000000	100.461722
3309.000000	100.463113
3308.000000	100.463609
3307.000000	100.463653
3306.000000	100.463782
3305.000000	100.464246
3304.000000	100.465012
3303.000000	100.466066
3302.000000	100.467544
3301.000000	100.469504
3300.000000	100.471695
3299.000000	100.473682
3298.000000	100.475224
3297.000000	100.476461
3296.000000	100.477723
3295.000000	100.479204
3294.000000	100.480841
3293.000000	100.482474
3292.000000	100.484097
3291.000000	100.485898
3290.000000	100.488056
3289.000000	100.490564
3288.000000	100.493247
3287.000000	100.495819
3286.000000	100.497858
3285.000000	100.498932
3284.000000	100.498995
3283.000000	100.498718
3282.000000	100.499103
3281.000000	100.500614
3280.000000	100.502954
3279.000000	100.505607
3278.000000	100.508340
3277.000000	100.510992
3276.000000	100.513082
3275.000000	100.514142
3274.000000	100.514474
3273.000000	100.515231
3272.000000	100.517427
3271.000000	100.521062
3270.000000	100.525203
3269.000000	100.528823
3268.000000	100.531509
3267.000000	100.533443
3266.000000	100.534934
3265.000000	100.535967
3264.000000	100.536248
3263.000000	100.535777
3262.000000	100.535261
3261.000000	100.535658
3260.000000	100.537260
3259.000000	100.539458
3258.000000	100.541473
3257.000000	100.543163
3256.000000	100.544918
3255.000000	100.546917
3254.000000	100.548774
3253.000000	100.549972
3252.000000	100.550483
3251.000000	100.550874
3250.000000	100.551856
3249.000000	100.553759
3248.000000	100.556356
3247.000000	100.559078
3246.000000	100.561400
3245.000000	100.563124
3244.000000	100.564416
3243.000000	100.565579
3242.000000	100.566619
3241.000000	100.566957
3240.000000	100.565773
3239.000000	100.562924
3238.000000	100.559547
3237.000000	100.557503
3236.000000	100.558104
3235.000000	100.561487
3234.000000	100.566973
3233.000000	100.573636
3232.000000	100.580412
3231.000000	100.586024
3230.000000	100.589433
3229.000000	100.590600
3228.000000	100.590660
3227.000000	100.590993
3226.000000	100.592097
3225.000000	100.593551
3224.000000	100.594942
3223.000000	100.596396
3222.000000	100.598054
3221.000000	100.599489
3220.000000	100.600175
3219.000000	100.600428
3218.000000	100.601282
3217.000000	100.603358
3216.000000	100.606323
3215.000000	100.609584
3214.000000	100.613038
3213.000000	100.616865
3212.000000	100.620915
3211.000000	100.624612
3210.000000	100.627309
3209.000000	100.628578
3208.000000	100.628429
3207.000000	100.627524
3206.000000	100.626896
3205.000000	100.627099
3204.000000	100.627767
3203.000000	100.628278
3202.000000	100.628650
3201.000000	100.629505
3200.000000	100.631330
3199.000000	100.634169
3198.000000	100.637887
3197.000000	100.642264
3196.000000	100.646748
3195.000000	100.650516
3194.000000	100.652945
3193.000000	100.653919
3192.000000	100.653740
3191.000000	100.652993
3190.000000	100.652528
3189.000000	100.653308
3188.000000	100.656011
3187.000000	100.660686
3186.000000	100.666573
3185.000000	100.672276
3184.000000	100.676465
3183.000000	100.678688
3182.000000	100.679559
3181.000000	100.679971
3180.000000	100.680152
3179.000000	100.679905
3178.000000	100.679574
3177.000000	100.680089
3176.000000	100.681841
3175.000000	100.684067
3174.000000	100.685782
3173.000000	100.687009
3172.000000	100.688597
3171.000000	100.690979
3170.000000	100.693617
3169.000000	100.695746
3168.000000	100.697264
3167.000000	100.698689
3166.000000	100.700463
3165.000000	100.702482
3164.000000	100.704186
3163.000000	100.705015
3162.000000	100.704909
3161.000000	100.704488
3160.000000	100.704679
3159.000000	100.706102
3158.000000	100.708868
3157.000000	100.712864
3156.000000	100.717811
3155.000000	100.722908
3154.000000	100.726973
3153.000000	100.729404
3152.000000	100.730853
3151.000000	100.732612
3150.000000	100.735233
3149.000000	100.738170
3148.000000	100.740763
3147.000000	100.743007
3146.000000	100.745109
3145.000000	100.746757
3144.000000	100.747321
3143.000000	100.746662
3142.000000	100.745501
3141.000000	100.745034
3140.000000	100.746096
3139.000000	100.748559
3138.000000	100.751380
3137.000000	100.753386
3136.000000	100.754306
3135.000000	100.754920
3134.000000	100.756109
3133.000000	100.757948
3132.000000	100.759905
3131.000000	100.761629
3130.000000	100.763169
3129.000000	100.764624
3128.000000	100.766067
3127.000000	100.767791
3126.000000	100.770142
3125.000000	100.772999
3124.000000	100.775747
3123.000000	100.777936
3122.000000	100.779682
3121.000000	100.781238
3120.000000	100.782519
3119.000000	100.783370
3118.000000	100.784135
3117.000000	100.785522
3116.000000	100.787851
3115.000000	100.790732
3114.000000	100.793427
3113.000000	100.795519
3112.000000	100.797143
3111.000000	100.798719
3110.000000	100.800606
3109.000000	100.802881
3108.000000	100.805317
3107.000000	100.807523
3106.000000	100.809248
3105.000000	100.810618
3104.000000	100.812076
3103.000000	100.814027
3102.000000	100.816523
3101.000000	100.819245
3100.000000	100.821763
3099.000000	100.823881
3098.000000	100.825701
3097.000000	100.827462
3096.000000	100.829377
3095.000000	100.831594
3094.000000	100.834191
3093.000000	100.837078
3092.000000	100.839946
3091.000000	100.842388
3090.000000	100.844172
3089.000000	100.845428
3088.000000	100.846571
3087.000000	100.847978
3086.000000	100.849667
3085.000000	100.851334
3084.000000	100.852718
3083.000000	100.853920
3082.000000	100.855299
3081.000000	100.857044
3080.000000	100.858931
3079.000000	100.860580
3078.000000	100.861878
3077.000000	100.863067
3076.000000	100.864458
3075.000000	100.866098
3074.000000	100.867751
3073.000000	100.869162
3072.000000	100.870320
3071.000000	100.871449
3070.000000	100.872758
3069.000000	100.874254
3068.000000	100.875829
3067.000000	100.877448
3066.000000	100.879141
3065.000000	100.880883
3064.000000	100.882602
3063.000000	100.884319
3062.000000	100.886163
3061.000000	100.888170
3060.000000	100.890126
3059.000000	100.891693
3058.000000	100.892708
3057.000000	100.893318
3056.000000	100.893956
3055.000000	100.895068
3054.000000	100.896789
3053.000000	100.898885
3052.000000	100.900880
3051.000000	100.902460
3050.000000	100.903679
3049.000000	100.904785
3048.000000	100.905935
3047.000000	100.907130
3046.000000	100.908388
3045.000000	100.909800
3044.000000	100.911353
3043.000000	100.912926
3042.000000	100.914581
3041.000000	100.916604
3040.000000	100.919079
3039.000000	100.921563
3038.000000	100.923444
3037.000000	100.924600
3036.000000	100.925523
3035.000000	100.926822
3034.000000	100.928732
3033.000000	100.931129
3032.000000	100.933791
3031.000000	100.936539
3030.000000	100.939253
3029.000000	100.941945
3028.000000	100.944831
3027.000000	100.948127
3026.000000	100.951625
3025.000000	100.954551
3024.000000	100.956097
3023.000000	100.956228
3022.000000	100.955833
3021.000000	100.955992
3020.000000	100.957175
3019.000000	100.959350
3018.000000	100.962563
3017.000000	100.966964
3016.000000	100.972139
3015.000000	100.976893
3014.000000	100.980030
3013.000000	100.981235
3012.000000	100.981152
3011.000000	100.980839
3010.000000	100.981101
3009.000000	100.982154
3008.000000	100.983805
3007.000000	100.986014
3006.000000	100.989205
3005.000000	100.993663
3004.000000	100.998633
3003.000000	101.002572
3002.000000	101.004626
3001.000000	101.005694
3000.000000	101.007792
2999.000000	101.012355
2998.000000	101.018979
2997.000000	101.025548
2996.000000	101.029817
2995.000000	101.031436
2994.000000	101.032551
2993.000000	101.035968
2992.000000	101.042445
2991.000000	101.049989
2990.000000	101.055998
2989.000000	101.059832
2988.000000	101.063057
2987.000000	101.067425
2986.000000	101.072889
2985.000000	101.077659
2984.000000	101.080194
2983.000000	101.081094
2982.000000	101.082845
2981.000000	101.087405
2980.000000	101.093939
2979.000000	101.099360
2978.000000	101.101232
2977.000000	101.099886
2976.000000	101.097744
2975.000000	101.096980
2974.000000	101.097972
2973.000000	101.099793
2972.000000	101.101620
2971.000000	101.103342
2970.000000	101.104897
2969.000000	101.105608
2968.000000	101.104740
2967.000000	101.102501
2966.000000	101.099775
2965.000000	101.096780
2964.000000	101.092908
2963.000000	101.088324
2962.000000	101.084728
2961.000000	101.083470
2960.000000	101.083564
2959.000000	101.082766
2958.000000	101.080533
2957.000000	101.078725
2956.000000	101.079183
2955.000000	101.081726
2954.000000	101.084918
2953.000000	101.087820
2952.000000	101.090134
2951.000000	101.091283
2950.000000	101.090448
2949.000000	101.087705
2948.000000	101.084446
2947.000000	101.082262
2946.000000	101.081521
2945.000000	101.081426
2944.000000	101.081487
2943.000000	101.082466
2942.000000	101.085358
2941.000000	101.089554
2940.000000	101.092722
2939.000000	101.093069
2938.000000	101.091373
2937.000000	101.090269
2936.000000	101.091677
2935.000000	101.095339
2934.000000	101.099491
2933.000000	101.102452
2932.000000	101.103708
2931.000000	101.103945
2930.000000	101.104340
2929.000000	101.105645
2928.000000	101.107849
2927.000000	101.110599
2926.000000	101.113612
2925.000000	101.116532
2924.000000	101.118845
2923.000000	101.120436
2922.000000	101.121986
2921.000000	101.124340
2920.000000	101.127511
2919.000000	101.130609
2918.000000	101.132669
2917.000000	101.133281
2916.000000	101.132612
2915.000000	101.131315
2914.000000	101.130311
2913.000000	101.130243
2912.000000	101.131131
2911.000000	101.132721
2910.000000	101.134885
2909.000000	101.137353
2908.000000	101.139385
2907.000000	101.140315
2906.000000	101.140348
2905.000000	101.140442
2904.000000	101.141256
2903.000000	101.142546
2902.000000	101.143692
2901.000000	101.144422
2900.000000	101.144951
2899.000000	101.145633
2898.000000	101.146643
2897.000000	101.147877
2896.000000	101.149050
2895.000000	101.149938
2894.000000	101.150582
2893.000000	101.151176
2892.000000	101.151845
2891.000000	101.152551
2890.000000	101.153221
2889.000000	101.153855
2888.000000	101.154479
2887.000000	101.155049
2886.000000	101.155497
2885.000000	101.155811
2884.000000	101.156042
2883.000000	101.156258
2882.000000	101.156496
2881.000000	101.156756
2880.000000	101.157010
2879.000000	101.157217
2878.000000	101.157355
2877.000000	101.157450
2876.000000	101.157560
2875.000000	101.157721
2874.000000	101.157909
2873.000000	101.158068
2872.000000	101.158191
2871.000000	101.158366
2870.000000	101.158702
2869.000000	101.159222
2868.000000	101.159786
2867.000000	101.160128
2866.000000	101.160050
2865.000000	101.159609
2864.000000	101.159158
2863.000000	101.159071
2862.000000	101.159388
2861.000000	101.159734
2860.000000	101.159636
2859.000000	101.158936
2858.000000	101.157904
2857.000000	101.157074
2856.000000	101.156847
2855.000000	101.157251
2854.000000	101.157881
2853.000000	101.158163
2852.000000	101.157852
2851.000000	101.157270
2850.000000	101.156982
2849.000000	101.157106
2848.000000	101.157089
2847.000000	101.156290
2846.000000	101.154719
2845.000000	101.153043
2844.000000	101.151869
2843.000000	101.151331
2842.000000	101.151376
2841.000000	101.152042
2840.000000	101.153264
2839.000000	101.154723
2838.000000	101.156144
2837.000000	101.157574
2836.000000	101.159097
2835.000000	101.160501
2834.000000	101.161452
2833.000000	101.161825
2832.000000	101.161655
2831.000000	101.160944
2830.000000	101.159799
2829.000000	101.158632
2828.000000	101.157911
2827.000000	101.157802
2826.000000	101.158175
2825.000000	101.158831
2824.000000	101.159570
2823.000000	101.160269
2822.000000	101.161130
2821.000000	101.162516
2820.000000	101.164217
2819.000000	101.165277
2818.000000	101.165020
2817.000000	101.163908
2816.000000	101.162990
2815.000000	101.162648
2814.000000	101.162570
2813.000000	101.162662
2812.000000	101.163170
2811.000000	101.163951
2810.000000	101.164357
2809.000000	101.164016
2808.000000	101.163245
2807.000000	101.162615
2806.000000	101.162566
2805.000000	101.163521
2804.000000	101.165765
2803.000000	101.169035
2802.000000	101.172611
2801.000000	101.175805
2800.000000	101.178138
2799.000000	101.179255
2798.000000	101.179095
2797.000000	101.178216
2796.000000	101.177550
2795.000000	101.177549
2794.000000	101.177925
2793.000000	101.178360
2792.000000	101.179051
2791.000000	101.180288
2790.000000	101.181830
2789.000000	101.183034
2788.000000	101.183498
2787.000000	101.183394
2786.000000	101.183296
2785.000000	101.183765
2784.000000	101.184954
2783.000000	101.186529
2782.000000	101.188009
2781.000000	101.189235
2780.000000	101.190372
2779.000000	101.191506
2778.000000	101.192486
2777.000000	101.193234
2776.000000	101.193973
2775.000000	101.194957
2774.000000	101.196155
2773.000000	101.197375
2772.000000	101.198570
2771.000000	101.199824
2770.000000	101.201091
2769.000000	101.202174
2768.000000	101.202984
2767.000000	101.203703
2766.000000	101.204622
2765.000000	101.205874
2764.000000	101.207335
2763.000000	101.208713
2762.000000	101.209754
2761.000000	101.210404
2760.000000	101.210845
2759.000000	101.211349
2758.000000	101.212074
2757.000000	101.212998
2756.000000	101.213985
2755.000000	101.214866
2754.000000	101.215510
2753.000000	101.215894
2752.000000	101.216125
2751.000000	101.216408
2750.000000	101.216905
2749.000000	101.217648
2748.000000	101.218538
2747.000000	101.219393
2746.000000	101.220054
2745.000000	101.220481
2744.000000	101.220753
2743.000000	101.220987
2742.000000	101.221257
2741.000000	101.221579
2740.000000	101.221960
2739.000000	101.222407
2738.000000	101.222916
2737.000000	101.223449
2736.000000	101.223943
2735.000000	101.224362
2734.000000	101.224714
2733.000000	101.225029
2732.000000	101.225333
2731.000000	101.225640
2730.000000	101.225956
2729.000000	101.226284
2728.000000	101.226616
2727.000000	101.226935
2726.000000	101.227238
2725.000000	101.227529
2724.000000	101.227811
2723.000000	101.228086
2722.000000	101.228354
2721.000000	101.228612
2720.000000	101.228857
2719.000000	101.229088
2718.000000	101.229309
2717.000000	101.229524
2716.000000	101.229738
2715.000000	101.229954
2714.000000	101.230176
2713.000000	101.230409
2712.000000	101.230655
2711.000000	101.230912
2710.000000	101.231173
2709.000000	101.231428
2708.000000	101.231671
2707.000000	101.231901
2706.000000	101.232121
2705.000000	101.232331
2704.000000	101.232537
2703.000000	101.232740
2702.000000	101.232943
2701.000000	101.233141
2700.000000	101.233327
2699.000000	101.233499
2698.000000	101.233653
2697.000000	101.233788
2696.000000	101.233911
2695.000000	101.234052
2694.000000	101.234257
2693.000000	101.234552
2692.000000	101.234876
2691.000000	101.235108
2690.000000	101.235154
2689.000000	101.235014
2688.000000	101.234830
2687.000000	101.234787
2686.000000	101.234966
2685.000000	101.235256
2684.000000	101.235446
2683.000000	101.235432
2682.000000	101.235277
2681.000000	101.235094
2680.000000	101.234955
2679.000000	101.234910
2678.000000	101.234996
2677.000000	101.235199
2676.000000	101.235485
2675.000000	101.235911
2674.000000	101.236595
2673.000000	101.237483
2672.000000	101.238231
2671.000000	101.238480
2670.000000	101.238237
2669.000000	101.237915
2668.000000	101.237918
2667.000000	101.238280
2666.000000	101.238735
2665.000000	101.239052
2664.000000	101.239159
2663.000000	101.238982
2662.000000	101.238343
2661.000000	101.237165
2660.000000	101.235761
2659.000000	101.234797
2658.000000	101.234861
2657.000000	101.236081
2656.000000	101.238103
2655.000000	101.240276
2654.000000	101.241938
2653.000000	101.242692
2652.000000	101.242591
2651.000000	101.242182
2650.000000	101.242149
2649.000000	101.242715
2648.000000	101.243400
2647.000000	101.243458
2646.000000	101.242567
2645.000000	101.241086
2644.000000	101.239753
2643.000000	101.239141
2642.000000	101.239408
2641.000000	101.240420
2640.000000	101.241840
2639.000000	101.243207
2638.000000	101.244104
2637.000000	101.244382
2636.000000	101.244182
2635.000000	101.243732
2634.000000	101.243198
2633.000000	101.242703
2632.000000	101.242347
2631.000000	101.242121
2630.000000	101.241881
2629.000000	101.241516
2628.000000	101.241100
2627.000000	101.240783
2626.000000	101.240623
2625.000000	101.240630
2624.000000	101.240853
2623.000000	101.241285
2622.000000	101.241732
2621.000000	101.241961
2620.000000	101.241981
2619.000000	101.242024
2618.000000	101.242226
2617.000000	101.242471
2616.000000	101.242597
2615.000000	101.242600
2614.000000	101.242589
2613.000000	101.242629
2612.000000	101.242701
2611.000000	101.242778
2610.000000	101.242870
2609.000000	101.242991
2608.000000	101.243122
2607.000000	101.243248
2606.000000	101.243380
2605.000000	101.243533
2604.000000	101.243707
2603.000000	101.243890
2602.000000	101.244075
2601.000000	101.244260
2600.000000	101.244440
2599.000000	101.244614
2598.000000	101.244788
2597.000000	101.244966
2596.000000	101.245148
2595.000000	101.245333
2594.000000	101.245525
2593.000000	101.245730
2592.000000	101.245950
2591.000000	101.246183
2590.000000	101.246417
2589.000000	101.246642
2588.000000	101.246853
2587.000000	101.247053
2586.000000	101.247248
2585.000000	101.247440
2584.000000	101.247627
2583.000000	101.247804
2582.000000	101.247966
2581.000000	101.248109
2580.000000	101.248235
2579.000000	101.248350
2578.000000	101.248460
2577.000000	101.248574
2576.000000	101.248695
2575.000000	101.248826
2574.000000	101.248965
2573.000000	101.249113
2572.000000	101.249265
2571.000000	101.249414
2570.000000	101.249554
2569.000000	101.249675
2568.000000	101.249775
2567.000000	101.249857
2566.000000	101.249929
2565.000000	101.250004
2564.000000	101.250090
2563.000000	101.250188
2562.000000	101.250287
2561.000000	101.250369
2560.000000	101.250427
2559.000000	101.250468
2558.000000	101.250514
2557.000000	101.250579
2556.000000	101.250667
2555.000000	101.250759
2554.000000	101.250834
2553.000000	101.250896
2552.000000	101.250977
2551.000000	101.251105
2550.000000	101.251247
2549.000000	101.251325
2548.000000	101.251301
2547.000000	101.251206
2546.000000	101.251115
2545.000000	101.251081
2544.000000	101.251123
2543.000000	101.251241
2542.000000	101.251426
2541.000000	101.251647
2540.000000	101.251851
2539.000000	101.252013
2538.000000	101.252150
2537.000000	101.252303
2536.000000	101.252483
2535.000000	101.252665
2534.000000	101.252834
2533.000000	101.253006
2532.000000	101.253195
2531.000000	101.253384
2530.000000	101.253556
2529.000000	101.253733
2528.000000	101.253968
2527.000000	101.254265
2526.000000	101.254568
2525.000000	101.254831
2524.000000	101.255079
2523.000000	101.255367
2522.000000	101.255677
2521.000000	101.255927
2520.000000	101.256108
2519.000000	101.256340
2518.000000	101.256748
2517.000000	101.257314
2516.000000	101.257861
2515.000000	101.258238
2514.000000	101.258466
2513.000000	101.258715
2512.000000	101.259105
2511.000000	101.259576
2510.000000	101.259940
2509.000000	101.260051
2508.000000	101.259918
2507.000000	101.259717
2506.000000	101.259675
2505.000000	101.259917
2504.000000	101.260423
2503.000000	101.261073
2502.000000	101.261708
2501.000000	101.262183
2500.000000	101.262421
2499.000000	101.262486
2498.000000	101.262584
2497.000000	101.262906
2496.000000	101.263435
2495.000000	101.263935
2494.000000	101.264129
2493.000000	101.263904
2492.000000	101.263391
2491.000000	101.262931
2490.000000	101.262899
2489.000000	101.263492
2488.000000	101.264605
2487.000000	101.265926
2486.000000	101.267176
2485.000000	101.268228
2484.000000	101.269019
2483.000000	101.269473
2482.000000	101.269578
2481.000000	101.269502
2480.000000	101.269492
2479.000000	101.269683
2478.000000	101.270046
2477.000000	101.270455
2476.000000	101.270692
2475.000000	101.270512
2474.000000	101.269938
2473.000000	101.269462
2472.000000	101.269663
2471.000000	101.270471
2470.000000	101.271065
2469.000000	101.270755
2468.000000	101.269806
2467.000000	101.269099
2466.000000	101.268991
2465.000000	101.268874
2464.000000	101.268068
2463.000000	101.266868
2462.000000	101.266366
2461.000000	101.267309
2460.000000	101.269521
2459.000000	101.272188
2458.000000	101.274420
2457.000000	101.275723
2456.000000	101.276143
2455.000000	101.276156
2454.000000	101.276363
2453.000000	101.277034
2452.000000	101.277908
2451.000000	101.278459
2450.000000	101.278388
2449.000000	101.277860
2448.000000	101.277346
2447.000000	101.277249
2446.000000	101.277638
2445.000000	101.278274
2444.000000	101.278882
2443.000000	101.279409
2442.000000	101.280003
2441.000000	101.280743
2440.000000	101.281456
2439.000000	101.281835
2438.000000	101.281740
2437.000000	101.281354
2436.000000	101.281074
2435.000000	101.281196
2434.000000	101.281731
2433.000000	101.282523
2432.000000	101.283502
2431.000000	101.284724
2430.000000	101.286116
2429.000000	101.287269
2428.000000	101.287697
2427.000000	101.287319
2426.000000	101.286621
2425.000000	101.286269
2424.000000	101.286635
2423.000000	101.287812
2422.000000	101.289757
2421.000000	101.292096
2420.000000	101.293919
2419.000000	101.294292
2418.000000	101.293218
2417.000000	101.291886
2416.000000	101.291552
2415.000000	101.292302
2414.000000	101.293220
2413.000000	101.293558
2412.000000	101.293334
2411.000000	101.292785
2410.000000	101.291765
2409.000000	101.289993
2408.000000	101.287743
2407.000000	101.285944
2406.000000	101.285387
2405.000000	101.285908
2404.000000	101.286601
2403.000000	101.286964
2402.000000	101.287630
2401.000000	101.289568
2400.000000	101.292703
2399.000000	101.295816
2398.000000	101.297843
2397.000000	101.298695
2396.000000	101.298728
2395.000000	101.297908
2394.000000	101.296060
2393.000000	101.293608
2392.000000	101.290889
2391.000000	101.287950
2390.000000	101.285254
2389.000000	101.283347
2388.000000	101.282077
2387.000000	101.280735
2386.000000	101.279034
2385.000000	101.277491
2384.000000	101.276632
2383.000000	101.276274
2382.000000	101.275873
2381.000000	101.275163
2380.000000	101.274241
2379.000000	101.273243
2378.000000	101.272218
2377.000000	101.271197
2376.000000	101.270201
2375.000000	101.269214
2374.000000	101.268217
2373.000000	101.267222
2372.000000	101.266246
2371.000000	101.265287
2370.000000	101.264338
2369.000000	101.263396
2368.000000	101.262455
2367.000000	101.261513
2366.000000	101.260575
2365.000000	101.259649
2364.000000	101.258738
2363.000000	101.257842
2362.000000	101.256955
2361.000000	101.256074
2360.000000	101.255206
2359.000000	101.254363
2358.000000	101.253556
2357.000000	101.252794
2356.000000	101.252081
2355.000000	101.251418
2354.000000	101.250800
2353.000000	101.250218
2352.000000	101.249659
2351.000000	101.249126
2350.000000	101.248640
2349.000000	101.248229
2348.000000	101.247908
2347.000000	101.247668
2346.000000	101.247482
2345.000000	101.247329
2344.000000	101.247204
2343.000000	101.247115
2342.000000	101.247068
2341.000000	101.247057
2340.000000	101.247074
2339.000000	101.247114
2338.000000	101.247174
2337.000000	101.247256
2336.000000	101.247361
2335.000000	101.247498
2334.000000	101.247675
2333.000000	101.247896
2332.000000	101.248156
2331.000000	101.248445
2330.000000	101.248755
2329.000000	101.249080
2328.000000	101.249424
2327.000000	101.249793
2326.000000	101.250192
2325.000000	101.250625
2324.000000	101.251088
2323.000000	101.251570
2322.000000	101.252063
2321.000000	101.252564
2320.000000	101.253074
2319.000000	101.253601
2318.000000	101.254149
2317.000000	101.254716
2316.000000	101.255301
2315.000000	101.255899
2314.000000	101.256505
2313.000000	101.257114
2312.000000	101.257721
2311.000000	101.258327
2310.000000	101.258933
2309.000000	101.259539
2308.000000	101.260137
2307.000000	101.260714
2306.000000	101.261262
2305.000000	101.261780
2304.000000	101.262300
2303.000000	101.262846
2302.000000	101.263357
2301.000000	101.263749
2300.000000	101.264080
2299.000000	101.264479
2298.000000	101.265039
2297.000000	101.265641
2296.000000	101.266138
2295.000000	101.266474
2294.000000	101.266748
2293.000000	101.267005
2292.000000	101.267252
2291.000000	101.267510
2290.000000	101.267805
2289.000000	101.268085
2288.000000	101.268258
2287.000000	101.268314
2286.000000	101.268287
2285.000000	101.268194
2284.000000	101.268057
2283.000000	101.268006
2282.000000	101.268170
2281.000000	101.268513
2280.000000	101.268819
2279.000000	101.268887
2278.000000	101.268712
2277.000000	101.268460
2276.000000	101.268301
2275.000000	101.268272
2274.000000	101.268285
2273.000000	101.268197
2272.000000	101.267933
2271.000000	101.267523
2270.000000	101.267070
2269.000000	101.266663
2268.000000	101.266345
2267.000000	101.266132
2266.000000	101.266014
2265.000000	101.265947
2264.000000	101.265867
2263.000000	101.265734
2262.000000	101.265557
2261.000000	101.265348
2260.000000	101.265079
2259.000000	101.264711
2258.000000	101.264250
2257.000000	101.263780
2256.000000	101.263429
2255.000000	101.263246
2254.000000	101.263179
2253.000000	101.263128
2252.000000	101.263007
2251.000000	101.262782
2250.000000	101.262461
2249.000000	101.262091
2248.000000	101.261758
2247.000000	101.261531
2246.000000	101.261431
2245.000000	101.261422
2244.000000	101.261437
2243.000000	101.261411
2242.000000	101.261300
2241.000000	101.261106
2240.000000	101.260878
2239.000000	101.260658
2238.000000	101.260424
2237.000000	101.260115
2236.000000	101.259734
2235.000000	101.259366
2234.000000	101.259094
2233.000000	101.258955
2232.000000	101.258991
2231.000000	101.259240
2230.000000	101.259614
2229.000000	101.259853
2228.000000	101.259754
2227.000000	101.259384
2226.000000	101.259028
2225.000000	101.258891
2224.000000	101.258949
2223.000000	101.259100
2222.000000	101.259337
2221.000000	101.259682
2220.000000	101.260044
2219.000000	101.260308
2218.000000	101.260495
2217.000000	101.260743
2216.000000	101.261086
2215.000000	101.261327
2214.000000	101.261194
2213.000000	101.260622
2212.000000	101.259924
2211.000000	101.259599
2210.000000	101.259897
2209.000000	101.260638
2208.000000	101.261409
2207.000000	101.262043
2206.000000	101.262728
2205.000000	101.263578
2204.000000	101.264290
2203.000000	101.264455
2202.000000	101.264086
2201.000000	101.263630
2200.000000	101.263458
2199.000000	101.263532
2198.000000	101.263666
2197.000000	101.263830
2196.000000	101.264050
2195.000000	101.264163
2194.000000	101.263932
2193.000000	101.263384
2192.000000	101.262842
2191.000000	101.262591
2190.000000	101.262665
2189.000000	101.263008
2188.000000	101.263644
2187.000000	101.264529
2186.000000	101.265331
2185.000000	101.265614
2184.000000	101.265286
2183.000000	101.264706
2182.000000	101.264346
2181.000000	101.264338
2180.000000	101.264439
2179.000000	101.264346
2178.000000	101.263976
2177.000000	101.263478
2176.000000	101.263075
2175.000000	101.262903
2174.000000	101.262980
2173.000000	101.263230
2172.000000	101.263484
2171.000000	101.263516
2170.000000	101.263157
2169.000000	101.262426
2168.000000	101.261571
2167.000000	101.260951
2166.000000	101.260800
2165.000000	101.261109
2164.000000	101.261660
2163.000000	101.262206
2162.000000	101.262644
2161.000000	101.263008
2160.000000	101.263287
2159.000000	101.263330
2158.000000	101.263004
2157.000000	101.262435
2156.000000	101.261976
2155.000000	101.261862
2154.000000	101.261995
2153.000000	101.262117
2152.000000	101.262168
2151.000000	101.262368
2150.000000	101.262921
2149.000000	101.263715
2148.000000	101.264356
2147.000000	101.264539
2146.000000	101.264352
2145.000000	101.264215
2144.000000	101.264445
2143.000000	101.264922
2142.000000	101.265274
2141.000000	101.265346
2140.000000	101.265332
2139.000000	101.265468
2138.000000	101.265771
2137.000000	101.266141
2136.000000	101.266538
2135.000000	101.266886
2134.000000	101.266934
2133.000000	101.266452
2132.000000	101.265593
2131.000000	101.264883
2130.000000	101.264744
2129.000000	101.265172
2128.000000	101.265903
2127.000000	101.266783
2126.000000	101.267820
2125.000000	101.268921
2124.000000	101.269744
2123.000000	101.269949
2122.000000	101.269613
2121.000000	101.269313
2120.000000	101.269622
2119.000000	101.270534
2118.000000	101.271524
2117.000000	101.272236
2116.000000	101.272900
2115.000000	101.273962
2114.000000	101.275472
2113.000000	101.276999
2112.000000	101.278031
2111.000000	101.278311
2110.000000	101.277890
2109.000000	101.277080
2108.000000	101.276309
2107.000000	101.275891
2106.000000	101.275948
2105.000000	101.276520
2104.000000	101.277468
2103.000000	101.278246
2102.000000	101.278175
2101.000000	101.277218
2100.000000	101.276288
2099.000000	101.276375
2098.000000	101.277593
2097.000000	101.279367
2096.000000	101.281287
2095.000000	101.283292
2094.000000	101.285185
2093.000000	101.286599
2092.000000	101.287535
2091.000000	101.288297
2090.000000	101.288755
2089.000000	101.288417
2088.000000	101.287373
2087.000000	101.286462
2086.000000	101.286232
2085.000000	101.286344
2084.000000	101.286276
2083.000000	101.286104
2082.000000	101.286268
2081.000000	101.286918
2080.000000	101.287870
2079.000000	101.288919
2078.000000	101.289852
2077.000000	101.290394
2076.000000	101.290457
2075.000000	101.290246
2074.000000	101.289962
2073.000000	101.289619
2072.000000	101.289332
2071.000000	101.289437
2070.000000	101.290055
2069.000000	101.290806
2068.000000	101.291273
2067.000000	101.291541
2066.000000	101.291957
2065.000000	101.292563
2064.000000	101.293110
2063.000000	101.293461
2062.000000	101.293609
2061.000000	101.293440
2060.000000	101.292907
2059.000000	101.292365
2058.000000	101.292257
2057.000000	101.292434
2056.000000	101.292290
2055.000000	101.291716
2054.000000	101.291462
2053.000000	101.292202
2052.000000	101.293440
2051.000000	101.293822
2050.000000	101.292574
2049.000000	101.290135
2048.000000	101.287642
2047.000000	101.285960
2046.000000	101.285269
2045.000000	101.285317
2044.000000	101.285639
2043.000000	101.285674
2042.000000	101.285031
2041.000000	101.283790
2040.000000	101.282471
2039.000000	101.281553
2038.000000	101.280995
2037.000000	101.280276
2036.000000	101.278914
2035.000000	101.276893
2034.000000	101.274685
2033.000000	101.272912
2032.000000	101.271872
2031.000000	101.271364
2030.000000	101.270902
2029.000000	101.270153
2028.000000	101.269174
2027.000000	101.268167
2026.000000	101.267144
2025.000000	101.265943
2024.000000	101.264512
2023.000000	101.263046
2022.000000	101.261804
2021.000000	101.260829
2020.000000	101.259937
2019.000000	101.258929
2018.000000	101.257790
2017.000000	101.256653
2016.000000	101.255587
2015.000000	101.254473
2014.000000	101.253160
2013.000000	101.251733
2012.000000	101.250488
2011.000000	101.249553
2010.000000	101.248659
2009.000000	101.247443
2008.000000	101.245936
2007.000000	101.244547
2006.000000	101.243550
2005.000000	101.242814
2004.000000	101.242086
2003.000000	101.241337
2002.000000	101.240686
2001.000000	101.240203
2000.000000	101.239962
1999.000000	101.240104
1998.000000	101.240599
1997.000000	101.240998
1996.000000	101.240632
1995.000000	101.239141
1994.000000	101.236711
1993.000000	101.233925
1992.000000	101.231480
1991.000000	101.230014
1990.000000	101.229990
1989.000000	101.231401
1988.000000	101.233507
1987.000000	101.235091
1986.000000	101.235299
1985.000000	101.234202
1984.000000	101.232635
1983.000000	101.231480
1982.000000	101.231023
1981.000000	101.230916
1980.000000	101.230578
1979.000000	101.229687
1978.000000	101.228447
1977.000000	101.227417
1976.000000	101.226988
1975.000000	101.227097
1974.000000	101.227522
1973.000000	101.228248
1972.000000	101.229297
1971.000000	101.230404
1970.000000	101.231248
1969.000000	101.231988
1968.000000	101.233139
1967.000000	101.234742
1966.000000	101.236001
1965.000000	101.236161
1964.000000	101.235560
1963.000000	101.235464
1962.000000	101.236743
1961.000000	101.238838
1960.000000	101.240270
1959.000000	101.240170
1958.000000	101.239015
1957.000000	101.237885
1956.000000	101.237243
1955.000000	101.236784
1954.000000	101.236261
1953.000000	101.235786
1952.000000	101.235240
1951.000000	101.234017
1950.000000	101.231905
1949.000000	101.229906
1948.000000	101.229420
1947.000000	101.230408
1946.000000	101.231157
1945.000000	101.230264
1944.000000	101.228032
1943.000000	101.225537
1942.000000	101.223156
1941.000000	101.220940
1940.000000	101.219573
1939.000000	101.219787
1938.000000	101.221266
1937.000000	101.222895
1936.000000	101.223910
1935.000000	101.224148
1934.000000	101.223303
1933.000000	101.221101
1932.000000	101.218492
1931.000000	101.217335
1930.000000	101.218341
1929.000000	101.220515
1928.000000	101.222944
1927.000000	101.225653
1926.000000	101.228041
1925.000000	101.228133
1924.000000	101.224550
1923.000000	101.218522
1922.000000	101.212798
1921.000000	101.208843
1920.000000	101.206367
1919.000000	101.204889
1918.000000	101.204165
1917.000000	101.203713
1916.000000	101.203153
1915.000000	101.202440
1914.000000	101.201270
1913.000000	101.198884
1912.000000	101.194950
1911.000000	101.190269
1910.000000	101.186045
1909.000000	101.182824
1908.000000	101.180523
1907.000000	101.178816
1906.000000	101.176828
1905.000000	101.173255
1904.000000	101.167644
1903.000000	101.161115
1902.000000	101.155060
1901.000000	101.149738
1900.000000	101.144616
1899.000000	101.139786
1898.000000	101.136241
1897.000000	101.134680
1896.000000	101.134649
1895.000000	101.134813
1894.000000	101.133718
1893.000000	101.130669
1892.000000	101.126244
1891.000000	101.122070
1890.000000	101.119818
1889.000000	101.120006
1888.000000	101.121888
1887.000000	101.124114
1886.000000	101.125158
1885.000000	101.123577
1884.000000	101.118736
1883.000000	101.111531
1882.000000	101.104151
1881.000000	101.098900
1880.000000	101.096835
1879.000000	101.097549
1878.000000	101.100172
1877.000000	101.104171
1876.000000	101.109064
1875.000000	101.113725
1874.000000	101.116470
1873.000000	101.116228
1872.000000	101.113545
1871.000000	101.110101
1870.000000	101.107325
1869.000000	101.105660
1868.000000	101.105369
1867.000000	101.106883
1866.000000	101.109758
1865.000000	101.112992
1864.000000	101.116030
1863.000000	101.118662
1862.000000	101.120517
1861.000000	101.121727
1860.000000	101.123958
1859.000000	101.129225
1858.000000	101.137013
1857.000000	101.143814
1856.000000	101.146594
1855.000000	101.145946
1854.000000	101.145266
1853.000000	101.147293
1852.000000	101.151820
1851.000000	101.156744
1850.000000	101.160450
1849.000000	101.162680
1848.000000	101.163714
1847.000000	101.163992
1846.000000	101.164751
1845.000000	101.167942
1844.000000	101.173906
1843.000000	101.179970
1842.000000	101.183269
1841.000000	101.183552
1840.000000	101.182498
1839.000000	101.181935
1838.000000	101.182610
1837.000000	101.184263
1836.000000	101.186397
1835.000000	101.188474
1834.000000	101.189870
1833.000000	101.190341
1832.000000	101.190351
1831.000000	101.190859
1830.000000	101.192216
1829.000000	101.193510
1828.000000	101.193603
1827.000000	101.192270
1826.000000	101.190300
1825.000000	101.188783
1824.000000	101.188368
1823.000000	101.188962
1822.000000	101.189816
1821.000000	101.190157
1820.000000	101.189869
1819.000000	101.189463
1818.000000	101.189173
1817.000000	101.188696
1816.000000	101.188105
1815.000000	101.187915
1814.000000	101.187894
1813.000000	101.187200
1812.000000	101.186210
1811.000000	101.186716
1810.000000	101.188721
1809.000000	101.189312
1808.000000	101.186974
1807.000000	101.183880
1806.000000	101.182440
1805.000000	101.182132
1804.000000	101.181236
1803.000000	101.180109
1802.000000	101.180737
1801.000000	101.183316
1800.000000	101.185770
1799.000000	101.186739
1798.000000	101.186609
1797.000000	101.186192
1796.000000	101.186100
1795.000000	101.186805
1794.000000	101.188650
1793.000000	101.191306
1792.000000	101.193704
1791.000000	101.195431
1790.000000	101.196591
1789.000000	101.196938
1788.000000	101.196738
1787.000000	101.197119
1786.000000	101.198664
1785.000000	101.200328
1784.000000	101.201031
1783.000000	101.201521
1782.000000	101.203457
1781.000000	101.206986
1780.000000	101.210218
1779.000000	101.211580
1778.000000	101.211656
1777.000000	101.212117
1776.000000	101.213664
1775.000000	101.215414
1774.000000	101.216210
1773.000000	101.215808
1772.000000	101.214864
1771.000000	101.215437
1770.000000	101.219306
1769.000000	101.225774
1768.000000	101.232353
1767.000000	101.237207
1766.000000	101.240420
1765.000000	101.242541
1764.000000	101.243534
1763.000000	101.243469
1762.000000	101.243351
1761.000000	101.244428
1760.000000	101.247130
1759.000000	101.251233
1758.000000	101.256430
1757.000000	101.261724
1756.000000	101.265253
1755.000000	101.266670
1754.000000	101.267943
1753.000000	101.270837
1752.000000	101.274317
1751.000000	101.275053
1750.000000	101.272499
1749.000000	101.270315
1748.000000	101.270563
1747.000000	101.271664
1746.000000	101.271889
1745.000000	101.270992
1744.000000	101.269010
1743.000000	101.266125
1742.000000	101.263482
1741.000000	101.262256
1740.000000	101.262084
1739.000000	101.261715
1738.000000	101.261098
1737.000000	101.261013
1736.000000	101.262280
1735.000000	101.264708
1734.000000	101.264609
1733.000000	101.260617
1732.000000	101.257082
1731.000000	101.256033
1730.000000	101.256245
1729.000000	101.256262
1728.000000	101.255201
1727.000000	101.252783
1726.000000	101.249144
1725.000000	101.244718
1724.000000	101.240421
1723.000000	101.237451
1722.000000	101.236157
1721.000000	101.235466
1720.000000	101.234354
1719.000000	101.233215
1718.000000	101.232483
1717.000000	101.230581
1716.000000	101.228044
1715.000000	101.227508
1714.000000	101.228655
1713.000000	101.228899
1712.000000	101.226908
1711.000000	101.223336
1710.000000	101.219398
1709.000000	101.215497
1708.000000	101.211535
1707.000000	101.207999
1706.000000	101.205115
1705.000000	101.201584
1704.000000	101.196314
1703.000000	101.190094
1702.000000	101.184836
1701.000000	101.182049
1700.000000	101.180254
1699.000000	101.177984
1698.000000	101.175470
1697.000000	101.172875
1696.000000	101.170304
1695.000000	101.167991
1694.000000	101.165744
1693.000000	101.162931
1692.000000	101.159413
1691.000000	101.155598
1690.000000	101.151967
1689.000000	101.148584
1688.000000	101.145151
1687.000000	101.141665
1686.000000	101.138698
1685.000000	101.136693
1684.000000	101.133805
1683.000000	101.129012
1682.000000	101.123853
1681.000000	101.119307
1680.000000	101.115370
1679.000000	101.112092
1678.000000	101.109417
1677.000000	101.107093
1676.000000	101.104496
1675.000000	101.100858
1674.000000	101.097120
1673.000000	101.094935
1672.000000	101.094377
1671.000000	101.094050
1670.000000	101.091985
1669.000000	101.087763
1668.000000	101.083285
1667.000000	101.079763
1666.000000	101.076943
1665.000000	101.074610
1664.000000	101.073226
1663.000000	101.072858
1662.000000	101.072413
1661.000000	101.071117
1660.000000	101.068940
1659.000000	101.065500
1658.000000	101.060475
1657.000000	101.054066
1656.000000	101.047418
1655.000000	101.042371
1654.000000	101.041021
1653.000000	101.039426
1652.000000	101.036327
1651.000000	101.034559
1650.000000	101.033588
1649.000000	101.032136
1648.000000	101.030956
1647.000000	101.029793
1646.000000	101.028379
1645.000000	101.028566
1644.000000	101.030907
1643.000000	101.033665
1642.000000	101.034940
1641.000000	101.034189
1640.000000	101.032476
1639.000000	101.031328
1638.000000	101.031586
1637.000000	101.032852
1636.000000	101.032722
1635.000000	101.029563
1634.000000	101.027301
1633.000000	101.028504
1632.000000	101.031008
1631.000000	101.031312
1630.000000	101.028160
1629.000000	101.024242
1628.000000	101.023677
1627.000000	101.026840
1626.000000	101.030530
1625.000000	101.032929
1624.000000	101.035294
1623.000000	101.038455
1622.000000	101.041273
1621.000000	101.043333
1620.000000	101.045373
1619.000000	101.047767
1618.000000	101.049696
1617.000000	101.049796
1616.000000	101.048871
1615.000000	101.049459
1614.000000	101.051975
1613.000000	101.055420
1612.000000	101.059268
1611.000000	101.063483
1610.000000	101.067835
1609.000000	101.072072
1608.000000	101.075778
1607.000000	101.078366
1606.000000	101.080225
1605.000000	101.082839
1604.000000	101.086893
1603.000000	101.091192
1602.000000	101.094279
1601.000000	101.096292
1600.000000	101.098152
1599.000000	101.100206
1598.000000	101.102691
1597.000000	101.106189
1596.000000	101.110808
1595.000000	101.115536
1594.000000	101.119266
1593.000000	101.122168
1592.000000	101.125092
1591.000000	101.128211
1590.000000	101.131162
1589.000000	101.134112
1588.000000	101.137626
1587.000000	101.141633
1586.000000	101.145408
1585.000000	101.148586
1584.000000	101.151467
1583.000000	101.154367
1582.000000	101.157218
1581.000000	101.159959
1580.000000	101.162761
1579.000000	101.165838
1578.000000	101.169397
1577.000000	101.173587
1576.000000	101.177805
1575.000000	101.181014
1574.000000	101.183215
1573.000000	101.185078
1572.000000	101.186967
1571.000000	101.188892
1570.000000	101.190660
1569.000000	101.192528
1568.000000	101.195076
1567.000000	101.198005
1566.000000	101.200564
1565.000000	101.202452
1564.000000	101.203865
1563.000000	101.204927
1562.000000	101.205692
1561.000000	101.207164
1560.000000	101.211501
1559.000000	101.217016
1558.000000	101.218614
1557.000000	101.218863
1556.000000	101.219892
1555.000000	101.220675
1554.000000	101.220626
1553.000000	101.220377
1552.000000	101.220730
1551.000000	101.221772
1550.000000	101.222924
1549.000000	101.223707
1548.000000	101.224188
1547.000000	101.224673
1546.000000	101.225484
1545.000000	101.226854
1544.000000	101.228618
1543.000000	101.230192
1542.000000	101.230783
1541.000000	101.229779
1540.000000	101.227804
1539.000000	101.226974
1538.000000	101.227632
1537.000000	101.227764
1536.000000	101.226181
1535.000000	101.223297
1534.000000	101.220247
1533.000000	101.217965
1532.000000	101.217265
1531.000000	101.218049
1530.000000	101.218962
1529.000000	101.218857
1528.000000	101.218164
1527.000000	101.218200
1526.000000	101.219192
1525.000000	101.219794
1524.000000	101.219381
1523.000000	101.219120
1522.000000	101.219924
1521.000000	101.220268
1520.000000	101.219117
1519.000000	101.217408
1518.000000	101.215907
1517.000000	101.214889
1516.000000	101.215103
1515.000000	101.217500
1514.000000	101.221449
1513.000000	101.225051
1512.000000	101.226687
1511.000000	101.226460
1510.000000	101.225713
1509.000000	101.225565
1508.000000	101.226103
1507.000000	101.226350
1506.000000	101.226013
1505.000000	101.226895
1504.000000	101.228708
1503.000000	101.230284
1502.000000	101.231147
1501.000000	101.231230
1500.000000	101.230465
1499.000000	101.229381
1498.000000	101.228975
1497.000000	101.228906
1496.000000	101.227939
1495.000000	101.227010
1494.000000	101.227708
1493.000000	101.229719
1492.000000	101.231983
1491.000000	101.234340
1490.000000	101.236818
1489.000000	101.238027
1488.000000	101.237122
1487.000000	101.235594
1486.000000	101.235007
1485.000000	101.235590
1484.000000	101.236601
1483.000000	101.237340
1482.000000	101.238027
1481.000000	101.239066
1480.000000	101.240230
1479.000000	101.240912
1478.000000	101.240616
1477.000000	101.239110
1476.000000	101.236743
1475.000000	101.234923
1474.000000	101.234672
1473.000000	101.234783
1472.000000	101.233192
1471.000000	101.231156
1470.000000	101.230099
1469.000000	101.228821
1468.000000	101.226070
1467.000000	101.222677
1466.000000	101.220524
1465.000000	101.219938
1464.000000	101.219691
1463.000000	101.219484
1462.000000	101.219518
1461.000000	101.218857
1460.000000	101.216543
1459.000000	101.213368
1458.000000	101.212097
1457.000000	101.212370
1456.000000	101.210910
1455.000000	101.208282
1454.000000	101.205751
1453.000000	101.202769
1452.000000	101.198816
1451.000000	101.194823
1450.000000	101.192931
1449.000000	101.193566
1448.000000	101.193529
1447.000000	101.189504
1446.000000	101.182549
1445.000000	101.176075
1444.000000	101.171873
1443.000000	101.169587
1442.000000	101.168359
1441.000000	101.167489
1440.000000	101.165291
1439.000000	101.159258
1438.000000	101.148803
1437.000000	101.137355
1436.000000	101.130564
1435.000000	101.130974
1434.000000	101.135462
1433.000000	101.139691
1432.000000	101.141938
1431.000000	101.142278
1430.000000	101.141507
1429.000000	101.140754
1428.000000	101.140480
1427.000000	101.139814
1426.000000	101.137555
1425.000000	101.134196
1424.000000	101.131412
1423.000000	101.130360
1422.000000	101.131619
1421.000000	101.135958
1420.000000	101.143821
1419.000000	101.152339
1418.000000	101.158001
1417.000000	101.160918
1416.000000	101.162262
1415.000000	101.163094
1414.000000	101.164657
1413.000000	101.167952
1412.000000	101.172890
1411.000000	101.178326
1410.000000	101.182990
1409.000000	101.185737
1408.000000	101.186298
1407.000000	101.186702
1406.000000	101.190485
1405.000000	101.199204
1404.000000	101.209386
1403.000000	101.215838
1402.000000	101.217420
1401.000000	101.217165
1400.000000	101.218937
1399.000000	101.223552
1398.000000	101.229029
1397.000000	101.234162
1396.000000	101.239656
1395.000000	101.246202
1394.000000	101.253592
1393.000000	101.261627
1392.000000	101.269433
1391.000000	101.275799
1390.000000	101.280069
1389.000000	101.282844
1388.000000	101.285790
1387.000000	101.289551
1386.000000	101.292515
1385.000000	101.293036
1384.000000	101.292065
1383.000000	101.292593
1382.000000	101.295972
1381.000000	101.299664
1380.000000	101.300351
1379.000000	101.297542
1378.000000	101.293162
1377.000000	101.289202
1376.000000	101.286879
1375.000000	101.286683
1374.000000	101.287430
1373.000000	101.286744
1372.000000	101.283881
1371.000000	101.280898
1370.000000	101.280617
1369.000000	101.284093
1368.000000	101.289432
1367.000000	101.293919
1366.000000	101.296386
1365.000000	101.296730
1364.000000	101.294993
1363.000000	101.291726
1362.000000	101.288358
1361.000000	101.286342
1360.000000	101.285817
1359.000000	101.285923
1358.000000	101.285866
1357.000000	101.285363
1356.000000	101.284727
1355.000000	101.284952
1354.000000	101.286864
1353.000000	101.289748
1352.000000	101.291797
1351.000000	101.292007
1350.000000	101.290953
1349.000000	101.290505
1348.000000	101.292101
1347.000000	101.295489
1346.000000	101.298749
1345.000000	101.299535
1344.000000	101.296718
1343.000000	101.291449
1342.000000	101.286704
1341.000000	101.285229
1340.000000	101.287226
1339.000000	101.290156
1338.000000	101.291690
1337.000000	101.292095
1336.000000	101.292951
1335.000000	101.294693
1334.000000	101.295988
1333.000000	101.295404
1332.000000	101.293332
1331.000000	101.291691
1330.000000	101.291662
1329.000000	101.292534
1328.000000	101.293116
1327.000000	101.293446
1326.000000	101.294363
1325.000000	101.296078
1324.000000	101.297603
1323.000000	101.297925
1322.000000	101.296945
1321.000000	101.294936
1320.000000	101.292016
1319.000000	101.288800
1318.000000	101.286654
1317.000000	101.286240
1316.000000	101.286640
1315.000000	101.286845
1314.000000	101.287448
1313.000000	101.289772
1312.000000	101.293601
1311.000000	101.296734
1310.000000	101.296879
1309.000000	101.293617
1308.000000	101.288881
1307.000000	101.285788
1306.000000	101.286212
1305.000000	101.289366
1304.000000	101.292863
1303.000000	101.295441
1302.000000	101.297746
1301.000000	101.300212
1300.000000	101.301436
1299.000000	101.299828
1298.000000	101.296027
1297.000000	101.292428
1296.000000	101.290631
1295.000000	101.290425
1294.000000	101.290949
1293.000000	101.291480
1292.000000	101.291093
1291.000000	101.288689
1290.000000	101.283712
1289.000000	101.276553
1288.000000	101.268447
1287.000000	101.261299
1286.000000	101.256814
1285.000000	101.254860
1284.000000	101.253186
1283.000000	101.249840
1282.000000	101.245680
1281.000000	101.243494
1280.000000	101.244527
1279.000000	101.246666
1278.000000	101.246546
1277.000000	101.242967
1276.000000	101.238009
1275.000000	101.235081
1274.000000	101.236139
1273.000000	101.240354
1272.000000	101.244887
1271.000000	101.246939
1270.000000	101.245678
1269.000000	101.242813
1268.000000	101.241310
1267.000000	101.243068
1266.000000	101.247394
1265.000000	101.251775
1264.000000	101.254343
1263.000000	101.255173
1262.000000	101.254810
1261.000000	101.252478
1260.000000	101.247088
1259.000000	101.239499
1258.000000	101.232086
1257.000000	101.225597
1256.000000	101.218190
1255.000000	101.208385
1254.000000	101.197517
1253.000000	101.187781
1252.000000	101.178516
1251.000000	101.166021
1250.000000	101.147548
1249.000000	101.124699
1248.000000	101.102240
1247.000000	101.083589
1246.000000	101.067951
1245.000000	101.052333
1244.000000	101.036009
1243.000000	101.021574
1242.000000	101.010904
1241.000000	101.001672
1240.000000	100.989758
1239.000000	100.974184
1238.000000	100.957392
1237.000000	100.940684
1236.000000	100.921847
1235.000000	100.898319
1234.000000	100.871001
1233.000000	100.843414
1232.000000	100.817640
1231.000000	100.792039
1230.000000	100.762861
1229.000000	100.727897
1228.000000	100.688676
1227.000000	100.648562
1226.000000	100.607992
1225.000000	100.562724
1224.000000	100.508177
1223.000000	100.444148
1222.000000	100.373093
1221.000000	100.295046
1220.000000	100.207841
1219.000000	100.112367
1218.000000	100.013735
1217.000000	99.915796
1216.000000	99.817721
1215.000000	99.717715
1214.000000	99.617032
1213.000000	99.517738
1212.000000	99.418487
1211.000000	99.315678
1210.000000	99.208405
1209.000000	99.099889
1208.000000	98.993593
1207.000000	98.889524
1206.000000	98.785526
1205.000000	98.681476
1204.000000	98.580002
1203.000000	98.482240
1202.000000	98.385032
1201.000000	98.284582
1200.000000	98.181592
1199.000000	98.080080
1198.000000	97.981967
1197.000000	97.885860
1196.000000	97.790436
1195.000000	97.695305
1194.000000	97.598925
1193.000000	97.499883
1192.000000	97.400401
1191.000000	97.304046
1190.000000	97.209082
1189.000000	97.108716
1188.000000	96.999649
1187.000000	96.886306
1186.000000	96.774656
1185.000000	96.665570
1184.000000	96.556509
1183.000000	96.445999
1182.000000	96.333780
1181.000000	96.219345
1180.000000	96.102406
1179.000000	95.982407
1178.000000	95.856704
1177.000000	95.722477
1176.000000	95.581202
1175.000000	95.437596
1174.000000	95.293554
1173.000000	95.147599
1172.000000	95.000685
1171.000000	94.856482
1170.000000	94.714219
1169.000000	94.567864
1168.000000	94.416177
1167.000000	94.269184
1166.000000	94.142126
1165.000000	94.047530
1164.000000	93.994469
1163.000000	93.988224
1162.000000	94.025662
1161.000000	94.093876
1160.000000	94.174610
1159.000000	94.246994
1158.000000	94.289000
1157.000000	94.285180
1156.000000	94.235811
1155.000000	94.154517
1154.000000	94.055621
1153.000000	93.946746
1152.000000	93.832443
1151.000000	93.717001
1150.000000	93.600802
1149.000000	93.480351
1148.000000	93.355524
1147.000000	93.232258
1146.000000	93.115915
1145.000000	93.006611
1144.000000	92.902048
1143.000000	92.798986
1142.000000	92.690893
1141.000000	92.571194
1140.000000	92.441237
1139.000000	92.309473
1138.000000	92.181213
1137.000000	92.054888
1136.000000	91.928763
1135.000000	91.803631
1134.000000	91.677278
1133.000000	91.544218
1132.000000	91.403522
1131.000000	91.260377
1130.000000	91.118455
1129.000000	90.977647
1128.000000	90.839931
1127.000000	90.708741
1126.000000	90.580765
1125.000000	90.447181
1124.000000	90.305341
1123.000000	90.161273
1122.000000	90.019325
1121.000000	89.878229
1120.000000	89.738751
1119.000000	89.604852
1118.000000	89.474713
1117.000000	89.340775
1116.000000	89.201672
1115.000000	89.064752
1114.000000	88.934093
1113.000000	88.805455
1112.000000	88.675318
1111.000000	88.545246
1110.000000	88.416136
1109.000000	88.287982
1108.000000	88.165273
1107.000000	88.052321
1106.000000	87.943631
1105.000000	87.829948
1104.000000	87.712521
1103.000000	87.599278
1102.000000	87.489099
1101.000000	87.373859
1100.000000	87.253749
1099.000000	87.136425
1098.000000	87.021910
1097.000000	86.905301
1096.000000	86.792351
1095.000000	86.694073
1094.000000	86.606284
1093.000000	86.513969
1092.000000	86.417135
1091.000000	86.332404
1090.000000	86.266079
1089.000000	86.204897
1088.000000	86.137125
1087.000000	86.064502
1086.000000	85.990094
1085.000000	85.913346
1084.000000	85.841433
1083.000000	85.786711
1082.000000	85.747106
1081.000000	85.705751
1080.000000	85.654243
1079.000000	85.599609
1078.000000	85.545719
1077.000000	85.486363
1076.000000	85.420517
1075.000000	85.354919
1074.000000	85.285910
1073.000000	85.196563
1072.000000	85.077224
1071.000000	84.932726
1070.000000	84.766047
1069.000000	84.572146
1068.000000	84.352596
1067.000000	84.119184
1066.000000	83.877970
1065.000000	83.626500
1064.000000	83.371144
1063.000000	83.128832
1062.000000	82.906209
1061.000000	82.695086
1060.000000	82.492817
1059.000000	82.307433
1058.000000	82.138077
1057.000000	81.970944
1056.000000	81.800218
1055.000000	81.632500
1054.000000	81.464388
1053.000000	81.276698
1052.000000	81.059713
1051.000000	80.824476
1050.000000	80.580261
1049.000000	80.322120
1048.000000	80.049488
1047.000000	79.773382
1046.000000	79.496720
1045.000000	79.209752
1044.000000	78.911132
1043.000000	78.612735
1042.000000	78.318921
1041.000000	78.021827
1040.000000	77.721881
1039.000000	77.431119
1038.000000	77.151728
1037.000000	76.875323
1036.000000	76.609126
1035.000000	76.377062
1034.000000	76.186475
1033.000000	76.017566
1032.000000	75.853731
1031.000000	75.699527
1030.000000	75.561237
1029.000000	75.434159
1028.000000	75.317872
1027.000000	75.220799
1026.000000	75.140972
1025.000000	75.063718
1024.000000	74.984687
1023.000000	74.912759
1022.000000	74.845468
1021.000000	74.766572
1020.000000	74.673946
1019.000000	74.584476
1018.000000	74.504770
1017.000000	74.422686
1016.000000	74.334829
1015.000000	74.255790
1014.000000	74.191011
1013.000000	74.126126
1012.000000	74.053538
1011.000000	73.985895
1010.000000	73.933042
1009.000000	73.887847
1008.000000	73.844051
1007.000000	73.806721
1006.000000	73.776649
1005.000000	73.745603
1004.000000	73.714741
1003.000000	73.696835
1002.000000	73.693365
1001.000000	73.690314
1000.000000	73.682842
999.000000	73.682744
998.000000	73.695538
997.000000	73.712188
996.000000	73.729646
995.000000	73.757492
994.000000	73.797574
993.000000	73.838875
992.000000	73.879438
991.000000	73.932496
990.000000	74.004520
989.000000	74.087534
988.000000	74.178192
987.000000	74.283873
986.000000	74.405160
985.000000	74.533680
984.000000	74.672203
983.000000	74.835363
982.000000	75.025427
981.000000	75.228464
980.000000	75.439151
979.000000	75.667936
978.000000	75.918598
977.000000	76.180511
976.000000	76.449218
975.000000	76.734229
974.000000	77.040111
973.000000	77.358699
972.000000	77.685024
971.000000	78.022299
970.000000	78.366422
969.000000	78.704111
968.000000	79.031435
967.000000	79.356916
966.000000	79.682239
965.000000	79.997330
964.000000	80.298956
963.000000	80.597092
962.000000	80.897515
961.000000	81.193237
960.000000	81.478072
959.000000	81.754742
958.000000	82.025601
957.000000	82.288191
956.000000	82.542842
955.000000	82.792441
954.000000	83.033449
953.000000	83.259590
952.000000	83.474176
951.000000	83.685073
950.000000	83.887899
949.000000	84.069326
948.000000	84.227475
947.000000	84.374455
946.000000	84.518401
945.000000	84.657609
944.000000	84.792688
943.000000	84.928051
942.000000	85.059594
941.000000	85.177093
940.000000	85.281817
939.000000	85.387410
938.000000	85.500717
937.000000	85.615688
936.000000	85.728061
935.000000	85.841199
934.000000	85.955444
933.000000	86.066688
932.000000	86.178057
931.000000	86.298422
930.000000	86.426781
929.000000	86.552308
928.000000	86.671890
927.000000	86.793313
926.000000	86.919450
925.000000	87.044261
924.000000	87.166426
923.000000	87.291222
922.000000	87.415536
921.000000	87.526352
920.000000	87.618919
919.000000	87.703413
918.000000	87.789828
917.000000	87.878894
916.000000	87.970943
915.000000	88.070400
914.000000	88.177722
913.000000	88.289286
912.000000	88.408640
911.000000	88.546110
910.000000	88.705223
909.000000	88.881758
908.000000	89.077184
907.000000	89.298821
906.000000	89.544410
905.000000	89.800383
904.000000	90.058422
903.000000	90.321522
902.000000	90.592325
901.000000	90.868345
900.000000	91.149566
899.000000	91.437447
898.000000	91.725198
897.000000	92.002396
896.000000	92.270017
895.000000	92.537475
894.000000	92.803835
893.000000	93.055874
892.000000	93.286626
891.000000	93.501872
890.000000	93.705841
889.000000	93.895127
888.000000	94.072225
887.000000	94.251737
886.000000	94.444845
885.000000	94.646501
884.000000	94.844399
883.000000	95.032340
882.000000	95.209714
881.000000	95.376489
880.000000	95.535052
879.000000	95.690685
878.000000	95.845054
877.000000	95.994872
876.000000	96.140697
875.000000	96.290861
874.000000	96.452889
873.000000	96.625722
872.000000	96.802184
871.000000	96.974165
870.000000	97.135650
869.000000	97.287222
868.000000	97.437872
867.000000	97.596076
866.000000	97.758576
865.000000	97.914093
864.000000	98.057892
863.000000	98.195890
862.000000	98.334208
861.000000	98.471686
860.000000	98.604050
859.000000	98.728806
858.000000	98.844092
857.000000	98.948398
856.000000	99.043731
855.000000	99.134772
854.000000	99.223142
853.000000	99.306117
852.000000	99.381458
851.000000	99.449397
850.000000	99.509640
849.000000	99.561193
848.000000	99.605938
847.000000	99.647502
846.000000	99.685216
845.000000	99.712784
844.000000	99.723482
843.000000	99.713188
842.000000	99.679098
841.000000	99.620944
840.000000	99.544438
839.000000	99.458802
838.000000	99.369040
837.000000	99.274274
836.000000	99.175037
835.000000	99.078213
834.000000	98.992567
833.000000	98.922332
832.000000	98.867132
831.000000	98.826080
830.000000	98.801220
829.000000	98.798322
828.000000	98.821855
827.000000	98.865182
826.000000	98.909232
825.000000	98.938109
824.000000	98.953713
823.000000	98.967875
822.000000	98.983773
821.000000	98.993831
820.000000	98.991702
819.000000	98.975939
818.000000	98.943821
817.000000	98.889777
816.000000	98.808944
815.000000	98.696031
814.000000	98.541962
813.000000	98.337280
812.000000	98.076835
811.000000	97.754516
810.000000	97.355532
809.000000	96.863327
808.000000	96.276513
807.000000	95.613560
806.000000	94.900640
805.000000	94.162457
804.000000	93.425506
803.000000	92.719126
802.000000	92.069353
801.000000	91.501647
800.000000	91.050449
799.000000	90.749373
798.000000	90.604812
797.000000	90.590904
796.000000	90.673179
795.000000	90.824024
794.000000	91.016380
793.000000	91.222229
792.000000	91.423078
791.000000	91.608726
790.000000	91.763247
789.000000	91.864619
788.000000	91.899239
787.000000	91.864811
786.000000	91.759321
785.000000	91.581494
784.000000	91.344795
783.000000	91.078563
782.000000	90.812551
781.000000	90.571404
780.000000	90.383556
779.000000	90.278264
778.000000	90.268837
777.000000	90.351779
776.000000	90.522742
775.000000	90.775817
774.000000	91.085401
773.000000	91.409218
772.000000	91.716775
771.000000	92.001056
770.000000	92.259136
769.000000	92.477858
768.000000	92.646057
767.000000	92.768565
766.000000	92.860565
765.000000	92.936255
764.000000	93.006916
763.000000	93.080358
762.000000	93.157174
761.000000	93.235013
760.000000	93.318514
759.000000	93.416412
758.000000	93.528426
757.000000	93.645489
756.000000	93.763230
755.000000	93.883486
754.000000	94.002524
753.000000	94.112042
752.000000	94.214499
751.000000	94.323602
750.000000	94.444760
749.000000	94.567182
748.000000	94.680744
747.000000	94.789868
746.000000	94.905542
745.000000	95.034078
744.000000	95.179657
743.000000	95.347820
742.000000	95.538639
741.000000	95.743098
740.000000	95.951423
739.000000	96.159041
738.000000	96.361541
737.000000	96.551497
736.000000	96.724200
735.000000	96.880263
734.000000	97.019860
733.000000	97.140153
732.000000	97.239940
731.000000	97.321076
730.000000	97.384140
729.000000	97.428641
728.000000	97.460147
727.000000	97.490536
726.000000	97.528122
725.000000	97.574644
724.000000	97.632669
723.000000	97.707215
722.000000	97.797772
721.000000	97.896757
720.000000	97.999332
719.000000	98.107834
718.000000	98.223089
717.000000	98.337950
716.000000	98.442200
715.000000	98.529467
714.000000	98.599690
713.000000	98.659901
712.000000	98.721358
711.000000	98.787885
710.000000	98.847341
709.000000	98.882515
708.000000	98.890200
707.000000	98.881159
706.000000	98.859911
705.000000	98.816670
704.000000	98.741112
703.000000	98.628477
702.000000	98.467659
701.000000	98.236906
700.000000	97.921026
699.000000	97.531070
698.000000	97.105420
697.000000	96.702507
696.000000	96.392527
695.000000	96.233103
694.000000	96.238462
693.000000	96.372846
692.000000	96.577564
691.000000	96.805922
690.000000	97.032088
689.000000	97.241112
688.000000	97.424715
687.000000	97.583593
686.000000	97.724904
685.000000	97.853468
684.000000	97.968222
683.000000	98.067815
682.000000	98.155038
681.000000	98.235382
680.000000	98.312875
679.000000	98.388509
678.000000	98.462831
677.000000	98.537272
676.000000	98.614171
675.000000	98.698179
674.000000	98.786889
673.000000	98.868551
672.000000	98.937750
671.000000	99.005770
670.000000	99.090358
669.000000	99.191584
668.000000	99.268797
667.000000	99.301147
666.000000	99.330295
665.000000	99.366223
664.000000	99.402995
663.000000	99.448095
662.000000	99.506637
661.000000	99.562978
660.000000	99.595184
659.000000	99.599876
658.000000	99.589444
657.000000	99.567618
656.000000	99.524985
655.000000	99.461165
654.000000	99.388400
653.000000	99.321064
652.000000	99.275102
651.000000	99.262685
650.000000	99.278533
649.000000	99.307829
648.000000	99.353398
647.000000	99.429658
646.000000	99.524955
645.000000	99.603457
644.000000	99.651514
643.000000	99.693261
642.000000	99.754557
641.000000	99.835550
640.000000	99.928129
639.000000	100.030792
638.000000	100.132750
637.000000	100.213958
636.000000	100.274430
635.000000	100.334815
634.000000	100.398760
633.000000	100.443645
632.000000	100.459798
631.000000	100.472198
630.000000	100.510721
629.000000	100.578913
628.000000	100.665408
627.000000	100.762439
626.000000	100.859541
625.000000	100.945204
624.000000	101.026420
623.000000	101.124354
622.000000	101.239360
621.000000	101.340883
620.000000	101.398435
619.000000	101.402775
618.000000	101.361220
617.000000	101.298836
616.000000	101.265284
615.000000	101.300036
614.000000	101.377372
613.000000	101.425643
612.000000	101.408833
611.000000	101.353945
610.000000	101.294752
609.000000	101.226863
608.000000	101.142054
607.000000	101.065499
606.000000	101.019571
605.000000	100.976831
604.000000	100.886845
603.000000	100.736356
602.000000	100.565367
601.000000	100.437064
600.000000	100.404022
599.000000	100.478095
598.000000	100.608884
597.000000	100.717745
596.000000	100.763425
595.000000	100.754777
594.000000	100.713299
593.000000	100.660514
592.000000	100.638724
591.000000	100.688158
590.000000	100.782580
589.000000	100.842306
588.000000	100.831358
587.000000	100.792453
586.000000	100.778408
585.000000	100.797906
584.000000	100.850081
583.000000	100.948549
582.000000	101.076068
581.000000	101.179696
580.000000	101.247002
579.000000	101.320276
578.000000	101.402913
577.000000	101.431444
576.000000	101.389562
575.000000	101.369375
574.000000	101.444534
573.000000	101.547406
572.000000	101.566403
571.000000	101.496788
570.000000	101.429025
569.000000	101.420039
568.000000	101.450225
567.000000	101.484692
566.000000	101.500016
565.000000	101.475423
564.000000	101.406349
563.000000	101.310929
562.000000	101.200841
561.000000	101.079219
560.000000	100.988103
559.000000	100.988613
558.000000	101.054888
557.000000	101.072239
556.000000	100.992251
555.000000	100.902687
554.000000	100.895479
553.000000	100.951075
552.000000	101.013947
551.000000	101.077913
550.000000	101.137975
