PE IR       SUBTECH     SPECTRUM    ASCII       PEDS        4.00        
   -1
BH-1(1)60-61.asc
24/05/14
11:22:18.00
24/05/14
11:22:24.00
Administrator
?品 009 用? Administrator 日期 Tuesday, May 14 2024
550.000000
#HDR
-1
-1
#GR
cm-1
%T
1.0
0.0
4000.000000
-1.000000
3451
8
100.252280
70.827256
#DATA
4000.000000	100.089988
3999.000000	100.089628
3998.000000	100.089257
3997.000000	100.088881
3996.000000	100.088519
3995.000000	100.088177
3994.000000	100.087849
3993.000000	100.087536
3992.000000	100.087255
3991.000000	100.087012
3990.000000	100.086787
3989.000000	100.086563
3988.000000	100.086341
3987.000000	100.086123
3986.000000	100.085913
3985.000000	100.085717
3984.000000	100.085543
3983.000000	100.085391
3982.000000	100.085256
3981.000000	100.085128
3980.000000	100.084999
3979.000000	100.084867
3978.000000	100.084735
3977.000000	100.084605
3976.000000	100.084481
3975.000000	100.084364
3974.000000	100.084256
3973.000000	100.084156
3972.000000	100.084065
3971.000000	100.083981
3970.000000	100.083904
3969.000000	100.083833
3968.000000	100.083766
3967.000000	100.083700
3966.000000	100.083632
3965.000000	100.083562
3964.000000	100.083493
3963.000000	100.083430
3962.000000	100.083382
3961.000000	100.083354
3960.000000	100.083349
3959.000000	100.083362
3958.000000	100.083389
3957.000000	100.083423
3956.000000	100.083462
3955.000000	100.083504
3954.000000	100.083545
3953.000000	100.083579
3952.000000	100.083600
3951.000000	100.083607
3950.000000	100.083595
3949.000000	100.083562
3948.000000	100.083505
3947.000000	100.083424
3946.000000	100.083327
3945.000000	100.083225
3944.000000	100.083126
3943.000000	100.083034
3942.000000	100.082943
3941.000000	100.082850
3940.000000	100.082749
3939.000000	100.082642
3938.000000	100.082534
3937.000000	100.082425
3936.000000	100.082322
3935.000000	100.082239
3934.000000	100.082183
3933.000000	100.082133
3932.000000	100.082047
3931.000000	100.081900
3930.000000	100.081717
3929.000000	100.081548
3928.000000	100.081444
3927.000000	100.081442
3926.000000	100.081539
3925.000000	100.081653
3924.000000	100.081651
3923.000000	100.081446
3922.000000	100.081104
3921.000000	100.080845
3920.000000	100.080899
3919.000000	100.081349
3918.000000	100.082024
3917.000000	100.082572
3916.000000	100.082684
3915.000000	100.082300
3914.000000	100.081623
3913.000000	100.080946
3912.000000	100.080447
3911.000000	100.080115
3910.000000	100.079850
3909.000000	100.079601
3908.000000	100.079412
3907.000000	100.079328
3906.000000	100.079304
3905.000000	100.079305
3904.000000	100.079518
3903.000000	100.080253
3902.000000	100.081543
3901.000000	100.082980
3900.000000	100.083967
3899.000000	100.084155
3898.000000	100.083634
3897.000000	100.082812
3896.000000	100.082089
3895.000000	100.081673
3894.000000	100.081560
3893.000000	100.081624
3892.000000	100.081730
3891.000000	100.081780
3890.000000	100.081740
3889.000000	100.081688
3888.000000	100.081712
3887.000000	100.081717
3886.000000	100.081493
3885.000000	100.081007
3884.000000	100.080460
3883.000000	100.080071
3882.000000	100.079875
3881.000000	100.079756
3880.000000	100.079595
3879.000000	100.079378
3878.000000	100.079179
3877.000000	100.079079
3876.000000	100.079059
3875.000000	100.078994
3874.000000	100.078774
3873.000000	100.078401
3872.000000	100.077966
3871.000000	100.077594
3870.000000	100.077355
3869.000000	100.077209
3868.000000	100.077042
3867.000000	100.076781
3866.000000	100.076434
3865.000000	100.076054
3864.000000	100.075701
3863.000000	100.075398
3862.000000	100.075086
3861.000000	100.074651
3860.000000	100.073988
3859.000000	100.073066
3858.000000	100.072014
3857.000000	100.071147
3856.000000	100.070780
3855.000000	100.070992
3854.000000	100.071419
3853.000000	100.071618
3852.000000	100.071510
3851.000000	100.071248
3850.000000	100.071097
3849.000000	100.071159
3848.000000	100.071285
3847.000000	100.071226
3846.000000	100.070834
3845.000000	100.070199
3844.000000	100.069607
3843.000000	100.069272
3842.000000	100.069062
3841.000000	100.068508
3840.000000	100.067277
3839.000000	100.065708
3838.000000	100.064565
3837.000000	100.064062
3836.000000	100.063675
3835.000000	100.063176
3834.000000	100.063281
3833.000000	100.064873
3832.000000	100.067738
3831.000000	100.070306
3830.000000	100.071050
3829.000000	100.069886
3828.000000	100.067970
3827.000000	100.066352
3826.000000	100.065028
3825.000000	100.063348
3824.000000	100.061097
3823.000000	100.058800
3822.000000	100.057268
3821.000000	100.057309
3820.000000	100.058556
3819.000000	100.059207
3818.000000	100.058736
3817.000000	100.058640
3816.000000	100.060659
3815.000000	100.065091
3814.000000	100.070614
3813.000000	100.075792
3812.000000	100.079894
3811.000000	100.082378
3810.000000	100.082556
3809.000000	100.079914
3808.000000	100.074939
3807.000000	100.069739
3806.000000	100.066508
3805.000000	100.065210
3804.000000	100.063888
3803.000000	100.060428
3802.000000	100.054821
3801.000000	100.050263
3800.000000	100.049632
3799.000000	100.053150
3798.000000	100.059966
3797.000000	100.068809
3796.000000	100.077790
3795.000000	100.084828
3794.000000	100.088772
3793.000000	100.090021
3792.000000	100.089927
3791.000000	100.089797
3790.000000	100.090233
3789.000000	100.090955
3788.000000	100.091167
3787.000000	100.090254
3786.000000	100.088495
3785.000000	100.087165
3784.000000	100.087335
3783.000000	100.088706
3782.000000	100.089691
3781.000000	100.088660
3780.000000	100.085550
3779.000000	100.082297
3778.000000	100.080888
3777.000000	100.081341
3776.000000	100.082221
3775.000000	100.082310
3774.000000	100.081671
3773.000000	100.081446
3772.000000	100.082650
3771.000000	100.085039
3770.000000	100.087237
3769.000000	100.088040
3768.000000	100.087444
3767.000000	100.086449
3766.000000	100.085965
3765.000000	100.086009
3764.000000	100.085983
3763.000000	100.085514
3762.000000	100.084750
3761.000000	100.083984
3760.000000	100.083484
3759.000000	100.083459
3758.000000	100.083592
3757.000000	100.082828
3756.000000	100.080139
3755.000000	100.075360
3754.000000	100.069373
3753.000000	100.063779
3752.000000	100.060236
3751.000000	100.059460
3750.000000	100.060265
3749.000000	100.060635
3748.000000	100.060956
3747.000000	100.064182
3746.000000	100.072322
3745.000000	100.082482
3744.000000	100.087507
3743.000000	100.083500
3742.000000	100.073592
3741.000000	100.063543
3740.000000	100.056426
3739.000000	100.052191
3738.000000	100.049520
3737.000000	100.047581
3736.000000	100.047107
3735.000000	100.049636
3734.000000	100.054800
3733.000000	100.059747
3732.000000	100.061873
3731.000000	100.060635
3730.000000	100.057252
3729.000000	100.053367
3728.000000	100.049783
3727.000000	100.046268
3726.000000	100.042459
3725.000000	100.038895
3724.000000	100.036747
3723.000000	100.036517
3722.000000	100.036999
3721.000000	100.035776
3720.000000	100.031176
3719.000000	100.023528
3718.000000	100.014530
3717.000000	100.005719
3716.000000	99.997628
3715.000000	99.990001
3714.000000	99.982073
3713.000000	99.972777
3712.000000	99.962117
3711.000000	99.952458
3710.000000	99.946293
3709.000000	99.943294
3708.000000	99.940784
3707.000000	99.935795
3706.000000	99.926602
3705.000000	99.913406
3704.000000	99.897861
3703.000000	99.882023
3702.000000	99.867623
3701.000000	99.855745
3700.000000	99.846663
3699.000000	99.840361
3698.000000	99.836608
3697.000000	99.834077
3696.000000	99.830751
3695.000000	99.825602
3694.000000	99.819365
3693.000000	99.813491
3692.000000	99.808726
3691.000000	99.804707
3690.000000	99.800591
3689.000000	99.795511
3688.000000	99.788614
3687.000000	99.780620
3686.000000	99.774857
3685.000000	99.774228
3684.000000	99.778018
3683.000000	99.781785
3682.000000	99.779768
3681.000000	99.768665
3680.000000	99.749804
3679.000000	99.727890
3678.000000	99.707070
3677.000000	99.688170
3676.000000	99.671065
3675.000000	99.658110
3674.000000	99.649448
3673.000000	99.641606
3672.000000	99.631591
3671.000000	99.616733
3670.000000	99.596908
3669.000000	99.576327
3668.000000	99.557626
3667.000000	99.539825
3666.000000	99.521909
3665.000000	99.504237
3664.000000	99.488077
3663.000000	99.474232
3662.000000	99.461709
3661.000000	99.448086
3660.000000	99.431060
3659.000000	99.409278
3658.000000	99.382235
3657.000000	99.351423
3656.000000	99.321654
3655.000000	99.298497
3654.000000	99.284467
3653.000000	99.277765
3652.000000	99.272271
3651.000000	99.259859
3650.000000	99.237201
3649.000000	99.210396
3648.000000	99.187138
3647.000000	99.168413
3646.000000	99.151789
3645.000000	99.136139
3644.000000	99.121701
3643.000000	99.108523
3642.000000	99.095761
3641.000000	99.081874
3640.000000	99.065133
3639.000000	99.044679
3638.000000	99.021514
3637.000000	98.998131
3636.000000	98.976721
3635.000000	98.958029
3634.000000	98.941849
3633.000000	98.927821
3632.000000	98.914770
3631.000000	98.899433
3630.000000	98.878603
3629.000000	98.856050
3628.000000	98.840758
3627.000000	98.833903
3626.000000	98.830487
3625.000000	98.826892
3624.000000	98.821384
3623.000000	98.813580
3622.000000	98.804344
3621.000000	98.796341
3620.000000	98.795075
3619.000000	98.806885
3618.000000	98.832442
3617.000000	98.864879
3616.000000	98.895993
3615.000000	98.921471
3614.000000	98.941625
3613.000000	98.959882
3612.000000	98.979451
3611.000000	99.000966
3610.000000	99.023136
3609.000000	99.044406
3608.000000	99.063980
3607.000000	99.081547
3606.000000	99.096688
3605.000000	99.109677
3604.000000	99.121809
3603.000000	99.134255
3602.000000	99.146918
3601.000000	99.158724
3600.000000	99.168888
3599.000000	99.177605
3598.000000	99.185723
3597.000000	99.194175
3596.000000	99.203590
3595.000000	99.214402
3594.000000	99.226948
3593.000000	99.241352
3592.000000	99.257721
3591.000000	99.275904
3590.000000	99.294205
3589.000000	99.308651
3588.000000	99.315182
3587.000000	99.312998
3586.000000	99.304655
3585.000000	99.294975
3584.000000	99.289839
3583.000000	99.292556
3582.000000	99.300676
3581.000000	99.307703
3580.000000	99.308442
3579.000000	99.302925
3578.000000	99.295241
3577.000000	99.289545
3576.000000	99.287736
3575.000000	99.289973
3574.000000	99.295627
3573.000000	99.303107
3572.000000	99.309801
3571.000000	99.313292
3570.000000	99.312647
3569.000000	99.308663
3568.000000	99.303443
3567.000000	99.299353
3566.000000	99.297009
3565.000000	99.295252
3564.000000	99.293915
3563.000000	99.294391
3562.000000	99.297463
3561.000000	99.301873
3560.000000	99.304958
3559.000000	99.304646
3558.000000	99.301026
3557.000000	99.296117
3556.000000	99.291981
3555.000000	99.289039
3554.000000	99.286445
3553.000000	99.284138
3552.000000	99.283697
3551.000000	99.286570
3550.000000	99.291985
3549.000000	99.297159
3548.000000	99.299363
3547.000000	99.297769
3546.000000	99.293533
3545.000000	99.288575
3544.000000	99.284470
3543.000000	99.282119
3542.000000	99.281836
3541.000000	99.283376
3540.000000	99.285947
3539.000000	99.288520
3538.000000	99.290316
3537.000000	99.290980
3536.000000	99.290568
3535.000000	99.289472
3534.000000	99.288248
3533.000000	99.287330
3532.000000	99.286755
3531.000000	99.286159
3530.000000	99.285143
3529.000000	99.283717
3528.000000	99.282378
3527.000000	99.281679
3526.000000	99.281695
3525.000000	99.282024
3524.000000	99.282324
3523.000000	99.282779
3522.000000	99.283876
3521.000000	99.285785
3520.000000	99.288049
3519.000000	99.289848
3518.000000	99.290499
3517.000000	99.289769
3516.000000	99.287944
3515.000000	99.285798
3514.000000	99.284362
3513.000000	99.284422
3512.000000	99.286077
3511.000000	99.288669
3510.000000	99.291243
3509.000000	99.293201
3508.000000	99.294479
3507.000000	99.295155
3506.000000	99.295071
3505.000000	99.294037
3504.000000	99.292511
3503.000000	99.291726
3502.000000	99.292608
3501.000000	99.294739
3500.000000	99.296674
3499.000000	99.297278
3498.000000	99.296526
3497.000000	99.295140
3496.000000	99.293711
3495.000000	99.292248
3494.000000	99.290468
3493.000000	99.288306
3492.000000	99.286187
3491.000000	99.284854
3490.000000	99.284851
3489.000000	99.285950
3488.000000	99.287127
3487.000000	99.287305
3486.000000	99.286153
3485.000000	99.284074
3484.000000	99.281573
3483.000000	99.278909
3482.000000	99.276323
3481.000000	99.274247
3480.000000	99.273009
3479.000000	99.272379
3478.000000	99.271562
3477.000000	99.269747
3476.000000	99.266748
3475.000000	99.263249
3474.000000	99.260383
3473.000000	99.258957
3472.000000	99.259068
3471.000000	99.260228
3470.000000	99.261599
3469.000000	99.262160
3468.000000	99.261015
3467.000000	99.257927
3466.000000	99.253669
3465.000000	99.249649
3464.000000	99.246910
3463.000000	99.245462
3462.000000	99.244420
3461.000000	99.242715
3460.000000	99.239924
3459.000000	99.236625
3458.000000	99.233854
3457.000000	99.231940
3456.000000	99.230086
3455.000000	99.227364
3454.000000	99.223920
3453.000000	99.220692
3452.000000	99.218020
3451.000000	99.215133
3450.000000	99.211290
3449.000000	99.206920
3448.000000	99.203177
3447.000000	99.200617
3446.000000	99.198918
3445.000000	99.197816
3444.000000	99.197557
3443.000000	99.198126
3442.000000	99.198571
3441.000000	99.197591
3440.000000	99.194693
3439.000000	99.190568
3438.000000	99.186501
3437.000000	99.183357
3436.000000	99.181090
3435.000000	99.179139
3434.000000	99.177149
3433.000000	99.175214
3432.000000	99.173489
3431.000000	99.171816
3430.000000	99.169963
3429.000000	99.168102
3428.000000	99.166797
3427.000000	99.166453
3426.000000	99.166909
3425.000000	99.167508
3424.000000	99.167473
3423.000000	99.166337
3422.000000	99.164223
3421.000000	99.161877
3420.000000	99.160238
3419.000000	99.159744
3418.000000	99.159996
3417.000000	99.159976
3416.000000	99.158739
3415.000000	99.156066
3414.000000	99.152681
3413.000000	99.149802
3412.000000	99.148164
3411.000000	99.147580
3410.000000	99.147420
3409.000000	99.147395
3408.000000	99.147697
3407.000000	99.148451
3406.000000	99.149353
3405.000000	99.149856
3404.000000	99.149493
3403.000000	99.148050
3402.000000	99.145687
3401.000000	99.143044
3400.000000	99.140960
3399.000000	99.139905
3398.000000	99.139827
3397.000000	99.140472
3396.000000	99.141645
3395.000000	99.143059
3394.000000	99.144170
3393.000000	99.144505
3392.000000	99.144088
3391.000000	99.143412
3390.000000	99.143047
3389.000000	99.143280
3388.000000	99.143997
3387.000000	99.144736
3386.000000	99.144991
3385.000000	99.144652
3384.000000	99.144138
3383.000000	99.143985
3382.000000	99.144334
3381.000000	99.144907
3380.000000	99.145395
3379.000000	99.145768
3378.000000	99.146253
3377.000000	99.147114
3376.000000	99.148412
3375.000000	99.149925
3374.000000	99.151323
3373.000000	99.152446
3372.000000	99.153401
3371.000000	99.154403
3370.000000	99.155578
3369.000000	99.156928
3368.000000	99.158354
3367.000000	99.159630
3366.000000	99.160487
3365.000000	99.160831
3364.000000	99.160910
3363.000000	99.161206
3362.000000	99.162075
3361.000000	99.163507
3360.000000	99.165182
3359.000000	99.166708
3358.000000	99.167924
3357.000000	99.168959
3356.000000	99.170067
3355.000000	99.171390
3354.000000	99.172862
3353.000000	99.174301
3352.000000	99.175580
3351.000000	99.176692
3350.000000	99.177663
3349.000000	99.178491
3348.000000	99.179214
3347.000000	99.179970
3346.000000	99.180946
3345.000000	99.182226
3344.000000	99.183731
3343.000000	99.185270
3342.000000	99.186663
3341.000000	99.187872
3340.000000	99.188978
3339.000000	99.190086
3338.000000	99.191227
3337.000000	99.192363
3336.000000	99.193477
3335.000000	99.194637
3334.000000	99.195932
3333.000000	99.197379
3332.000000	99.198874
3331.000000	99.200280
3330.000000	99.201526
3329.000000	99.202620
3328.000000	99.203600
3327.000000	99.204525
3326.000000	99.205501
3325.000000	99.206633
3324.000000	99.207920
3323.000000	99.209252
3322.000000	99.210546
3321.000000	99.211842
3320.000000	99.213227
3319.000000	99.214709
3318.000000	99.216255
3317.000000	99.217882
3316.000000	99.219589
3315.000000	99.221238
3314.000000	99.222640
3313.000000	99.223786
3312.000000	99.224886
3311.000000	99.226106
3310.000000	99.227362
3309.000000	99.228535
3308.000000	99.229773
3307.000000	99.231415
3306.000000	99.233605
3305.000000	99.236073
3304.000000	99.238297
3303.000000	99.239946
3302.000000	99.241033
3301.000000	99.241849
3300.000000	99.242738
3299.000000	99.243889
3298.000000	99.245269
3297.000000	99.246678
3296.000000	99.247969
3295.000000	99.249247
3294.000000	99.250817
3293.000000	99.252869
3292.000000	99.255264
3291.000000	99.257622
3290.000000	99.259669
3289.000000	99.261456
3288.000000	99.263220
3287.000000	99.265068
3286.000000	99.266836
3285.000000	99.268329
3284.000000	99.269598
3283.000000	99.270904
3282.000000	99.272465
3281.000000	99.274297
3280.000000	99.276297
3279.000000	99.278357
3278.000000	99.280372
3277.000000	99.282234
3276.000000	99.283913
3275.000000	99.285522
3274.000000	99.287254
3273.000000	99.289253
3272.000000	99.291541
3271.000000	99.294004
3270.000000	99.296403
3269.000000	99.298536
3268.000000	99.300430
3267.000000	99.302352
3266.000000	99.304505
3265.000000	99.306766
3264.000000	99.308794
3263.000000	99.310446
3262.000000	99.311957
3261.000000	99.313686
3260.000000	99.315807
3259.000000	99.318300
3258.000000	99.321064
3257.000000	99.323905
3256.000000	99.326559
3255.000000	99.328909
3254.000000	99.331060
3253.000000	99.333125
3252.000000	99.335054
3251.000000	99.336807
3250.000000	99.338573
3249.000000	99.340593
3248.000000	99.342809
3247.000000	99.344910
3246.000000	99.346735
3245.000000	99.348514
3244.000000	99.350624
3243.000000	99.353247
3242.000000	99.356282
3241.000000	99.359403
3240.000000	99.362175
3239.000000	99.364313
3238.000000	99.365898
3237.000000	99.367321
3236.000000	99.368940
3235.000000	99.370858
3234.000000	99.373079
3233.000000	99.375598
3232.000000	99.378228
3231.000000	99.380552
3230.000000	99.382279
3229.000000	99.383590
3228.000000	99.384959
3227.000000	99.386611
3226.000000	99.388352
3225.000000	99.389983
3224.000000	99.391720
3223.000000	99.394027
3222.000000	99.397090
3221.000000	99.400607
3220.000000	99.403986
3219.000000	99.406818
3218.000000	99.409102
3217.000000	99.411053
3216.000000	99.412822
3215.000000	99.414456
3214.000000	99.416097
3213.000000	99.418043
3212.000000	99.420458
3211.000000	99.423158
3210.000000	99.425799
3209.000000	99.428192
3208.000000	99.430365
3207.000000	99.432439
3206.000000	99.434581
3205.000000	99.437002
3204.000000	99.439810
3203.000000	99.442863
3202.000000	99.445844
3201.000000	99.448540
3200.000000	99.450999
3199.000000	99.453427
3198.000000	99.455989
3197.000000	99.458694
3196.000000	99.461411
3195.000000	99.463978
3194.000000	99.466339
3193.000000	99.468576
3192.000000	99.470844
3191.000000	99.473244
3190.000000	99.475776
3189.000000	99.478381
3188.000000	99.481007
3187.000000	99.483632
3186.000000	99.486245
3185.000000	99.488836
3184.000000	99.491398
3183.000000	99.493936
3182.000000	99.496472
3181.000000	99.499014
3180.000000	99.501561
3179.000000	99.504099
3178.000000	99.506598
3177.000000	99.509046
3176.000000	99.511465
3175.000000	99.513877
3174.000000	99.516271
3173.000000	99.518632
3172.000000	99.520972
3171.000000	99.523320
3170.000000	99.525691
3169.000000	99.528083
3168.000000	99.530474
3167.000000	99.532830
3166.000000	99.535134
3165.000000	99.537396
3164.000000	99.539651
3163.000000	99.541923
3162.000000	99.544210
3161.000000	99.546493
3160.000000	99.548758
3159.000000	99.550991
3158.000000	99.553165
3157.000000	99.555270
3156.000000	99.557351
3155.000000	99.559477
3154.000000	99.561665
3153.000000	99.563876
3152.000000	99.566075
3151.000000	99.568270
3150.000000	99.570492
3149.000000	99.572769
3148.000000	99.575127
3147.000000	99.577547
3146.000000	99.579911
3145.000000	99.582041
3144.000000	99.583808
3143.000000	99.585215
3142.000000	99.586401
3141.000000	99.587653
3140.000000	99.589316
3139.000000	99.591554
3138.000000	99.594174
3137.000000	99.596752
3136.000000	99.599101
3135.000000	99.601418
3134.000000	99.603956
3133.000000	99.606679
3132.000000	99.609262
3131.000000	99.611401
3130.000000	99.613062
3129.000000	99.614522
3128.000000	99.616155
3127.000000	99.618139
3126.000000	99.620323
3125.000000	99.622366
3124.000000	99.624036
3123.000000	99.625402
3122.000000	99.626767
3121.000000	99.628450
3120.000000	99.630603
3119.000000	99.633138
3118.000000	99.635743
3117.000000	99.638046
3116.000000	99.639877
3115.000000	99.641402
3114.000000	99.643011
3113.000000	99.644998
3112.000000	99.647358
3111.000000	99.649824
3110.000000	99.652071
3109.000000	99.653927
3108.000000	99.655454
3107.000000	99.656840
3106.000000	99.658216
3105.000000	99.659614
3104.000000	99.661060
3103.000000	99.662637
3102.000000	99.664429
3101.000000	99.666433
3100.000000	99.668531
3099.000000	99.670562
3098.000000	99.672383
3097.000000	99.673902
3096.000000	99.675134
3095.000000	99.676236
3094.000000	99.677409
3093.000000	99.678724
3092.000000	99.680085
3091.000000	99.681370
3090.000000	99.682607
3089.000000	99.683985
3088.000000	99.685676
3087.000000	99.687652
3086.000000	99.689675
3085.000000	99.691467
3084.000000	99.692913
3083.000000	99.694101
3082.000000	99.695202
3081.000000	99.696316
3080.000000	99.697453
3079.000000	99.698652
3078.000000	99.699985
3077.000000	99.701449
3076.000000	99.702903
3075.000000	99.704223
3074.000000	99.705474
3073.000000	99.706845
3072.000000	99.708395
3071.000000	99.709941
3070.000000	99.711243
3069.000000	99.712258
3068.000000	99.713182
3067.000000	99.714280
3066.000000	99.715678
3065.000000	99.717293
3064.000000	99.718864
3063.000000	99.720122
3062.000000	99.720981
3061.000000	99.721571
3060.000000	99.722120
3059.000000	99.722792
3058.000000	99.723661
3057.000000	99.724765
3056.000000	99.726094
3055.000000	99.727519
3054.000000	99.728805
3053.000000	99.729750
3052.000000	99.730338
3051.000000	99.730796
3050.000000	99.731473
3049.000000	99.732579
3048.000000	99.734074
3047.000000	99.735756
3046.000000	99.737429
3045.000000	99.738959
3044.000000	99.740220
3043.000000	99.741154
3042.000000	99.741869
3041.000000	99.742636
3040.000000	99.743640
3039.000000	99.744816
3038.000000	99.745944
3037.000000	99.746888
3036.000000	99.747683
3035.000000	99.748435
3034.000000	99.749220
3033.000000	99.750076
3032.000000	99.751012
3031.000000	99.751982
3030.000000	99.752911
3029.000000	99.753798
3028.000000	99.754741
3027.000000	99.755807
3026.000000	99.756935
3025.000000	99.757996
3024.000000	99.758937
3023.000000	99.759791
3022.000000	99.760579
3021.000000	99.761273
3020.000000	99.761872
3019.000000	99.762471
3018.000000	99.763166
3017.000000	99.763912
3016.000000	99.764610
3015.000000	99.765369
3014.000000	99.766469
3013.000000	99.767941
3012.000000	99.769299
3011.000000	99.769922
3010.000000	99.769637
3009.000000	99.768843
3008.000000	99.768098
3007.000000	99.767875
3006.000000	99.768675
3005.000000	99.770813
3004.000000	99.773872
3003.000000	99.776657
3002.000000	99.778168
3001.000000	99.778417
3000.000000	99.778179
2999.000000	99.778166
2998.000000	99.778671
2997.000000	99.779713
2996.000000	99.781043
2995.000000	99.782182
2994.000000	99.782926
2993.000000	99.783587
2992.000000	99.784373
2991.000000	99.784887
2990.000000	99.784797
2989.000000	99.784669
2988.000000	99.785294
2987.000000	99.786387
2986.000000	99.786820
2985.000000	99.786183
2984.000000	99.785170
2983.000000	99.784263
2982.000000	99.783046
2981.000000	99.781265
2980.000000	99.779773
2979.000000	99.779734
2978.000000	99.781513
2977.000000	99.784768
2976.000000	99.788872
2975.000000	99.792691
2974.000000	99.794782
2973.000000	99.794734
2972.000000	99.793958
2971.000000	99.794205
2970.000000	99.795587
2969.000000	99.797022
2968.000000	99.798399
2967.000000	99.801132
2966.000000	99.806176
2965.000000	99.812452
2964.000000	99.817784
2963.000000	99.821102
2962.000000	99.823148
2961.000000	99.825187
2960.000000	99.827544
2959.000000	99.829497
2958.000000	99.830377
2957.000000	99.830523
2956.000000	99.831183
2955.000000	99.833423
2954.000000	99.837117
2953.000000	99.840981
2952.000000	99.843609
2951.000000	99.844546
2950.000000	99.844462
2949.000000	99.844536
2948.000000	99.845658
2947.000000	99.848019
2946.000000	99.851160
2945.000000	99.854227
2944.000000	99.856298
2943.000000	99.856806
2942.000000	99.855946
2941.000000	99.854690
2940.000000	99.854300
2939.000000	99.855729
2938.000000	99.859428
2937.000000	99.865279
2936.000000	99.872281
2935.000000	99.878516
2934.000000	99.882187
2933.000000	99.883045
2932.000000	99.882664
2931.000000	99.883187
2930.000000	99.885863
2929.000000	99.890607
2928.000000	99.896254
2927.000000	99.901100
2926.000000	99.904057
2925.000000	99.905899
2924.000000	99.908732
2923.000000	99.913408
2922.000000	99.917925
2921.000000	99.919426
2920.000000	99.917528
2919.000000	99.914841
2918.000000	99.914249
2917.000000	99.916189
2916.000000	99.918561
2915.000000	99.918492
2914.000000	99.914284
2913.000000	99.906682
2912.000000	99.898948
2911.000000	99.894713
2910.000000	99.895046
2909.000000	99.897857
2908.000000	99.900162
2907.000000	99.900734
2906.000000	99.900289
2905.000000	99.899795
2904.000000	99.899457
2903.000000	99.899065
2902.000000	99.898483
2901.000000	99.897659
2900.000000	99.896737
2899.000000	99.896301
2898.000000	99.896994
2897.000000	99.898671
2896.000000	99.900286
2895.000000	99.900951
2894.000000	99.900928
2893.000000	99.901306
2892.000000	99.902788
2891.000000	99.904954
2890.000000	99.906655
2889.000000	99.907040
2888.000000	99.906204
2887.000000	99.904938
2886.000000	99.903911
2885.000000	99.903160
2884.000000	99.902475
2883.000000	99.902001
2882.000000	99.902118
2881.000000	99.902791
2880.000000	99.903489
2879.000000	99.903890
2878.000000	99.904282
2877.000000	99.904999
2876.000000	99.905797
2875.000000	99.906121
2874.000000	99.905880
2873.000000	99.905733
2872.000000	99.906629
2871.000000	99.909151
2870.000000	99.913111
2869.000000	99.917476
2868.000000	99.920772
2867.000000	99.922066
2866.000000	99.921731
2865.000000	99.921087
2864.000000	99.921369
2863.000000	99.923101
2862.000000	99.926183
2861.000000	99.930082
2860.000000	99.933950
2859.000000	99.937066
2858.000000	99.939430
2857.000000	99.941643
2856.000000	99.943975
2855.000000	99.945739
2854.000000	99.945851
2853.000000	99.943945
2852.000000	99.940840
2851.000000	99.938058
2850.000000	99.936746
2849.000000	99.936788
2848.000000	99.936959
2847.000000	99.936131
2846.000000	99.934318
2845.000000	99.932267
2844.000000	99.930178
2843.000000	99.927519
2842.000000	99.924356
2841.000000	99.922220
2840.000000	99.922904
2839.000000	99.926522
2838.000000	99.931098
2837.000000	99.934058
2836.000000	99.934046
2835.000000	99.931494
2834.000000	99.928171
2833.000000	99.926167
2832.000000	99.926570
2831.000000	99.928812
2830.000000	99.931384
2829.000000	99.933407
2828.000000	99.935246
2827.000000	99.937494
2826.000000	99.939928
2825.000000	99.941804
2824.000000	99.942811
2823.000000	99.943279
2822.000000	99.943567
2821.000000	99.943714
2820.000000	99.943651
2819.000000	99.943385
2818.000000	99.942934
2817.000000	99.942457
2816.000000	99.942513
2815.000000	99.943770
2814.000000	99.946212
2813.000000	99.948844
2812.000000	99.950541
2811.000000	99.951146
2810.000000	99.951495
2809.000000	99.952409
2808.000000	99.953878
2807.000000	99.955353
2806.000000	99.956587
2805.000000	99.957849
2804.000000	99.959365
2803.000000	99.960853
2802.000000	99.961705
2801.000000	99.961494
2800.000000	99.960239
2799.000000	99.958404
2798.000000	99.956792
2797.000000	99.956256
2796.000000	99.957179
2795.000000	99.959246
2794.000000	99.961855
2793.000000	99.964657
2792.000000	99.967607
2791.000000	99.970477
2790.000000	99.972569
2789.000000	99.973171
2788.000000	99.972245
2787.000000	99.970634
2786.000000	99.969561
2785.000000	99.969793
2784.000000	99.971200
2783.000000	99.972990
2782.000000	99.974373
2781.000000	99.975120
2780.000000	99.975569
2779.000000	99.976252
2778.000000	99.977511
2777.000000	99.979289
2776.000000	99.981005
2775.000000	99.981792
2774.000000	99.981237
2773.000000	99.980008
2772.000000	99.979463
2771.000000	99.980334
2770.000000	99.982080
2769.000000	99.983748
2768.000000	99.985292
2767.000000	99.987562
2766.000000	99.991043
2765.000000	99.995096
2764.000000	99.998589
2763.000000	100.000890
2762.000000	100.001984
2761.000000	100.002022
2760.000000	100.001246
2759.000000	100.000042
2758.000000	99.998644
2757.000000	99.997003
2756.000000	99.995295
2755.000000	99.994343
2754.000000	99.994942
2753.000000	99.996797
2752.000000	99.998546
2751.000000	99.999086
2750.000000	99.998576
2749.000000	99.997966
2748.000000	99.997871
2747.000000	99.998163
2746.000000	99.998506
2745.000000	99.998852
2744.000000	99.999376
2743.000000	100.000157
2742.000000	100.001014
2741.000000	100.001625
2740.000000	100.001802
2739.000000	100.001701
2738.000000	100.001708
2737.000000	100.002057
2736.000000	100.002616
2735.000000	100.003087
2734.000000	100.003323
2733.000000	100.003419
2732.000000	100.003525
2731.000000	100.003698
2730.000000	100.003899
2729.000000	100.004083
2728.000000	100.004250
2727.000000	100.004404
2726.000000	100.004547
2725.000000	100.004680
2724.000000	100.004806
2723.000000	100.004923
2722.000000	100.005036
2721.000000	100.005154
2720.000000	100.005289
2719.000000	100.005451
2718.000000	100.005644
2717.000000	100.005860
2716.000000	100.006089
2715.000000	100.006323
2714.000000	100.006558
2713.000000	100.006790
2712.000000	100.007013
2711.000000	100.007222
2710.000000	100.007422
2709.000000	100.007621
2708.000000	100.007827
2707.000000	100.008038
2706.000000	100.008246
2705.000000	100.008446
2704.000000	100.008634
2703.000000	100.008815
2702.000000	100.008992
2701.000000	100.009168
2700.000000	100.009346
2699.000000	100.009523
2698.000000	100.009698
2697.000000	100.009865
2696.000000	100.010023
2695.000000	100.010167
2694.000000	100.010295
2693.000000	100.010408
2692.000000	100.010516
2691.000000	100.010628
2690.000000	100.010747
2689.000000	100.010865
2688.000000	100.010974
2687.000000	100.011064
2686.000000	100.011134
2685.000000	100.011184
2684.000000	100.011213
2683.000000	100.011219
2682.000000	100.011209
2681.000000	100.011205
2680.000000	100.011223
2679.000000	100.011264
2678.000000	100.011287
2677.000000	100.011253
2676.000000	100.011166
2675.000000	100.011072
2674.000000	100.011017
2673.000000	100.011011
2672.000000	100.011004
2671.000000	100.010926
2670.000000	100.010771
2669.000000	100.010633
2668.000000	100.010623
2667.000000	100.010755
2666.000000	100.010902
2665.000000	100.010920
2664.000000	100.010793
2663.000000	100.010633
2662.000000	100.010548
2661.000000	100.010521
2660.000000	100.010429
2659.000000	100.010169
2658.000000	100.009736
2657.000000	100.009223
2656.000000	100.008729
2655.000000	100.008268
2654.000000	100.007821
2653.000000	100.007474
2652.000000	100.007409
2651.000000	100.007700
2650.000000	100.008178
2649.000000	100.008515
2648.000000	100.008504
2647.000000	100.008215
2646.000000	100.007861
2645.000000	100.007577
2644.000000	100.007360
2643.000000	100.007185
2642.000000	100.007114
2641.000000	100.007223
2640.000000	100.007414
2639.000000	100.007415
2638.000000	100.007044
2637.000000	100.006460
2636.000000	100.006094
2635.000000	100.006251
2634.000000	100.006846
2633.000000	100.007423
2632.000000	100.007549
2631.000000	100.007153
2630.000000	100.006519
2629.000000	100.005935
2628.000000	100.005434
2627.000000	100.004934
2626.000000	100.004517
2625.000000	100.004389
2624.000000	100.004588
2623.000000	100.004879
2622.000000	100.004987
2621.000000	100.004836
2620.000000	100.004534
2619.000000	100.004279
2618.000000	100.004328
2617.000000	100.004832
2616.000000	100.005516
2615.000000	100.005674
2614.000000	100.004757
2613.000000	100.002861
2612.000000	100.000710
2611.000000	99.999140
2610.000000	99.998617
2609.000000	99.999131
2608.000000	100.000160
2607.000000	100.000813
2606.000000	100.000381
2605.000000	99.998834
2604.000000	99.996838
2603.000000	99.995211
2602.000000	99.994359
2601.000000	99.994244
2600.000000	99.994678
2599.000000	99.995539
2598.000000	99.996727
2597.000000	99.997985
2596.000000	99.998876
2595.000000	99.999143
2594.000000	99.999128
2593.000000	99.999529
2592.000000	100.000544
2591.000000	100.001531
2590.000000	100.001798
2589.000000	100.001444
2588.000000	100.001079
2587.000000	100.000924
2586.000000	100.000693
2585.000000	100.000278
2584.000000	99.999995
2583.000000	100.000023
2582.000000	100.000047
2581.000000	99.999701
2580.000000	99.999081
2579.000000	99.998644
2578.000000	99.998770
2577.000000	99.999529
2576.000000	100.000706
2575.000000	100.001904
2574.000000	100.002781
2573.000000	100.003242
2572.000000	100.003302
2571.000000	100.002969
2570.000000	100.002357
2569.000000	100.001734
2568.000000	100.001287
2567.000000	100.000932
2566.000000	100.000548
2565.000000	100.000290
2564.000000	100.000417
2563.000000	100.000877
2562.000000	100.001314
2561.000000	100.001487
2560.000000	100.001476
2559.000000	100.001474
2558.000000	100.001570
2557.000000	100.001730
2556.000000	100.001893
2555.000000	100.002024
2554.000000	100.002128
2553.000000	100.002220
2552.000000	100.002309
2551.000000	100.002400
2550.000000	100.002496
2549.000000	100.002604
2548.000000	100.002726
2547.000000	100.002862
2546.000000	100.003003
2545.000000	100.003145
2544.000000	100.003286
2543.000000	100.003426
2542.000000	100.003570
2541.000000	100.003724
2540.000000	100.003896
2539.000000	100.004087
2538.000000	100.004292
2537.000000	100.004497
2536.000000	100.004695
2535.000000	100.004881
2534.000000	100.005062
2533.000000	100.005249
2532.000000	100.005446
2531.000000	100.005656
2530.000000	100.005873
2529.000000	100.006095
2528.000000	100.006329
2527.000000	100.006582
2526.000000	100.006859
2525.000000	100.007159
2524.000000	100.007480
2523.000000	100.007817
2522.000000	100.008170
2521.000000	100.008543
2520.000000	100.008935
2519.000000	100.009343
2518.000000	100.009767
2517.000000	100.010197
2516.000000	100.010616
2515.000000	100.011018
2514.000000	100.011404
2513.000000	100.011773
2512.000000	100.012126
2511.000000	100.012487
2510.000000	100.012900
2509.000000	100.013387
2508.000000	100.013917
2507.000000	100.014426
2506.000000	100.014856
2505.000000	100.015194
2504.000000	100.015493
2503.000000	100.015850
2502.000000	100.016346
2501.000000	100.017010
2500.000000	100.017797
2499.000000	100.018609
2498.000000	100.019322
2497.000000	100.019826
2496.000000	100.020053
2495.000000	100.020003
2494.000000	100.019749
2493.000000	100.019478
2492.000000	100.019427
2491.000000	100.019723
2490.000000	100.020306
2489.000000	100.021004
2488.000000	100.021704
2487.000000	100.022398
2486.000000	100.023077
2485.000000	100.023706
2484.000000	100.024291
2483.000000	100.024911
2482.000000	100.025649
2481.000000	100.026471
2480.000000	100.027177
2479.000000	100.027558
2478.000000	100.027613
2477.000000	100.027587
2476.000000	100.027803
2475.000000	100.028374
2474.000000	100.029182
2473.000000	100.030006
2472.000000	100.030698
2471.000000	100.031220
2470.000000	100.031562
2469.000000	100.031760
2468.000000	100.031933
2467.000000	100.032220
2466.000000	100.032649
2465.000000	100.033118
2464.000000	100.033495
2463.000000	100.033740
2462.000000	100.033951
2461.000000	100.034321
2460.000000	100.034991
2459.000000	100.035876
2458.000000	100.036682
2457.000000	100.037198
2456.000000	100.037514
2455.000000	100.037903
2454.000000	100.038530
2453.000000	100.039330
2452.000000	100.040150
2451.000000	100.040893
2450.000000	100.041513
2449.000000	100.041986
2448.000000	100.042388
2447.000000	100.042927
2446.000000	100.043750
2445.000000	100.044747
2444.000000	100.045641
2443.000000	100.046310
2442.000000	100.046885
2441.000000	100.047548
2440.000000	100.048339
2439.000000	100.049235
2438.000000	100.050248
2437.000000	100.051329
2436.000000	100.052235
2435.000000	100.052724
2434.000000	100.052803
2433.000000	100.052602
2432.000000	100.052078
2431.000000	100.051038
2430.000000	100.049617
2429.000000	100.048571
2428.000000	100.048670
2427.000000	100.049958
2426.000000	100.051784
2425.000000	100.053436
2424.000000	100.054596
2423.000000	100.055205
2422.000000	100.055343
2421.000000	100.055365
2420.000000	100.055758
2419.000000	100.056649
2418.000000	100.057662
2417.000000	100.058412
2416.000000	100.058959
2415.000000	100.059606
2414.000000	100.060455
2413.000000	100.061333
2412.000000	100.062014
2411.000000	100.062407
2410.000000	100.062637
2409.000000	100.062980
2408.000000	100.063590
2407.000000	100.064248
2406.000000	100.064558
2405.000000	100.064463
2404.000000	100.064366
2403.000000	100.064595
2402.000000	100.064966
2401.000000	100.065111
2400.000000	100.065027
2399.000000	100.065057
2398.000000	100.065440
2397.000000	100.066086
2396.000000	100.066720
2395.000000	100.067097
2394.000000	100.067146
2393.000000	100.067050
2392.000000	100.067138
2391.000000	100.067495
2390.000000	100.067790
2389.000000	100.067696
2388.000000	100.067401
2387.000000	100.067448
2386.000000	100.068047
2385.000000	100.068861
2384.000000	100.069503
2383.000000	100.070023
2382.000000	100.070646
2381.000000	100.071240
2380.000000	100.071348
2379.000000	100.070723
2378.000000	100.069641
2377.000000	100.068703
2376.000000	100.068369
2375.000000	100.068695
2374.000000	100.069344
2373.000000	100.069815
2372.000000	100.069879
2371.000000	100.069836
2370.000000	100.070239
2369.000000	100.071272
2368.000000	100.072454
2367.000000	100.073074
2366.000000	100.072863
2365.000000	100.072088
2364.000000	100.070994
2363.000000	100.069551
2362.000000	100.067910
2361.000000	100.066580
2360.000000	100.065933
2359.000000	100.065759
2358.000000	100.065515
2357.000000	100.065119
2356.000000	100.065003
2355.000000	100.065324
2354.000000	100.065603
2353.000000	100.065287
2352.000000	100.064471
2351.000000	100.063701
2350.000000	100.063354
2349.000000	100.063378
2348.000000	100.063477
2347.000000	100.063432
2346.000000	100.063111
2345.000000	100.062471
2344.000000	100.061567
2343.000000	100.060548
2342.000000	100.059607
2341.000000	100.058844
2340.000000	100.058371
2339.000000	100.058230
2338.000000	100.058274
2337.000000	100.058224
2336.000000	100.057902
2335.000000	100.057350
2334.000000	100.056717
2333.000000	100.056177
2332.000000	100.055848
2331.000000	100.055695
2330.000000	100.055456
2329.000000	100.054940
2328.000000	100.054279
2327.000000	100.053930
2326.000000	100.054080
2325.000000	100.054411
2324.000000	100.054329
2323.000000	100.053565
2322.000000	100.052374
2321.000000	100.051273
2320.000000	100.050571
2319.000000	100.050200
2318.000000	100.049989
2317.000000	100.049892
2316.000000	100.049951
2315.000000	100.050272
2314.000000	100.050961
2313.000000	100.052037
2312.000000	100.053132
2311.000000	100.053651
2310.000000	100.053225
2309.000000	100.052215
2308.000000	100.051419
2307.000000	100.051390
2306.000000	100.051953
2305.000000	100.052560
2304.000000	100.052768
2303.000000	100.052496
2302.000000	100.051818
2301.000000	100.050872
2300.000000	100.049812
2299.000000	100.048873
2298.000000	100.048257
2297.000000	100.048013
2296.000000	100.047882
2295.000000	100.047494
2294.000000	100.046714
2293.000000	100.045880
2292.000000	100.045434
2291.000000	100.045448
2290.000000	100.045608
2289.000000	100.045664
2288.000000	100.045626
2287.000000	100.045500
2286.000000	100.045141
2285.000000	100.044514
2284.000000	100.043846
2283.000000	100.043311
2282.000000	100.042772
2281.000000	100.042071
2280.000000	100.041381
2279.000000	100.040964
2278.000000	100.040752
2277.000000	100.040437
2276.000000	100.039836
2275.000000	100.039002
2274.000000	100.038061
2273.000000	100.037124
2272.000000	100.036291
2271.000000	100.035637
2270.000000	100.035168
2269.000000	100.034841
2268.000000	100.034614
2267.000000	100.034410
2266.000000	100.034115
2265.000000	100.033680
2264.000000	100.033158
2263.000000	100.032646
2262.000000	100.032184
2261.000000	100.031751
2260.000000	100.031322
2259.000000	100.030891
2258.000000	100.030469
2257.000000	100.030069
2256.000000	100.029697
2255.000000	100.029347
2254.000000	100.029010
2253.000000	100.028682
2252.000000	100.028365
2251.000000	100.028061
2250.000000	100.027772
2249.000000	100.027495
2248.000000	100.027223
2247.000000	100.026952
2246.000000	100.026683
2245.000000	100.026416
2244.000000	100.026144
2243.000000	100.025873
2242.000000	100.025616
2241.000000	100.025392
2240.000000	100.025204
2239.000000	100.025033
2238.000000	100.024853
2237.000000	100.024661
2236.000000	100.024478
2235.000000	100.024323
2234.000000	100.024183
2233.000000	100.024030
2232.000000	100.023877
2231.000000	100.023769
2230.000000	100.023727
2229.000000	100.023715
2228.000000	100.023662
2227.000000	100.023526
2226.000000	100.023310
2225.000000	100.023062
2224.000000	100.022835
2223.000000	100.022672
2222.000000	100.022612
2221.000000	100.022678
2220.000000	100.022865
2219.000000	100.023110
2218.000000	100.023294
2217.000000	100.023310
2216.000000	100.023166
2215.000000	100.023030
2214.000000	100.023096
2213.000000	100.023412
2212.000000	100.023828
2211.000000	100.024123
2210.000000	100.024171
2209.000000	100.023985
2208.000000	100.023665
2207.000000	100.023354
2206.000000	100.023185
2205.000000	100.023185
2204.000000	100.023245
2203.000000	100.023232
2202.000000	100.023153
2201.000000	100.023135
2200.000000	100.023242
2199.000000	100.023361
2198.000000	100.023324
2197.000000	100.023105
2196.000000	100.022842
2195.000000	100.022712
2194.000000	100.022790
2193.000000	100.023033
2192.000000	100.023325
2191.000000	100.023525
2190.000000	100.023561
2189.000000	100.023488
2188.000000	100.023462
2187.000000	100.023598
2186.000000	100.023878
2185.000000	100.024212
2184.000000	100.024533
2183.000000	100.024826
2182.000000	100.025081
2181.000000	100.025293
2180.000000	100.025472
2179.000000	100.025640
2178.000000	100.025821
2177.000000	100.026036
2176.000000	100.026297
2175.000000	100.026586
2174.000000	100.026855
2173.000000	100.027081
2172.000000	100.027284
2171.000000	100.027491
2170.000000	100.027714
2169.000000	100.027952
2168.000000	100.028215
2167.000000	100.028513
2166.000000	100.028840
2165.000000	100.029173
2164.000000	100.029495
2163.000000	100.029824
2162.000000	100.030186
2161.000000	100.030571
2160.000000	100.030934
2159.000000	100.031246
2158.000000	100.031538
2157.000000	100.031888
2156.000000	100.032351
2155.000000	100.032930
2154.000000	100.033554
2153.000000	100.034128
2152.000000	100.034598
2151.000000	100.034988
2150.000000	100.035383
2149.000000	100.035842
2148.000000	100.036353
2147.000000	100.036866
2146.000000	100.037343
2145.000000	100.037764
2144.000000	100.038116
2143.000000	100.038413
2142.000000	100.038693
2141.000000	100.039003
2140.000000	100.039373
2139.000000	100.039821
2138.000000	100.040353
2137.000000	100.040968
2136.000000	100.041668
2135.000000	100.042447
2134.000000	100.043250
2133.000000	100.043930
2132.000000	100.044343
2131.000000	100.044488
2130.000000	100.044584
2129.000000	100.044909
2128.000000	100.045540
2127.000000	100.046337
2126.000000	100.047161
2125.000000	100.048047
2124.000000	100.049077
2123.000000	100.050162
2122.000000	100.051075
2121.000000	100.051710
2120.000000	100.052208
2119.000000	100.052797
2118.000000	100.053520
2117.000000	100.054196
2116.000000	100.054632
2115.000000	100.054835
2114.000000	100.055034
2113.000000	100.055513
2112.000000	100.056365
2111.000000	100.057427
2110.000000	100.058415
2109.000000	100.059205
2108.000000	100.059893
2107.000000	100.060591
2106.000000	100.061279
2105.000000	100.061900
2104.000000	100.062524
2103.000000	100.063268
2102.000000	100.064119
2101.000000	100.064932
2100.000000	100.065638
2099.000000	100.066333
2098.000000	100.067128
2097.000000	100.067995
2096.000000	100.068833
2095.000000	100.069641
2094.000000	100.070546
2093.000000	100.071620
2092.000000	100.072730
2091.000000	100.073577
2090.000000	100.073917
2089.000000	100.073761
2088.000000	100.073422
2087.000000	100.073321
2086.000000	100.073689
2085.000000	100.074494
2084.000000	100.075546
2083.000000	100.076611
2082.000000	100.077494
2081.000000	100.078193
2080.000000	100.078966
2079.000000	100.080088
2078.000000	100.081484
2077.000000	100.082703
2076.000000	100.083364
2075.000000	100.083530
2074.000000	100.083580
2073.000000	100.083834
2072.000000	100.084374
2071.000000	100.085137
2070.000000	100.085960
2069.000000	100.086582
2068.000000	100.086801
2067.000000	100.086696
2066.000000	100.086633
2065.000000	100.086938
2064.000000	100.087608
2063.000000	100.088372
2062.000000	100.088964
2061.000000	100.089292
2060.000000	100.089426
2059.000000	100.089548
2058.000000	100.089859
2057.000000	100.090387
2056.000000	100.090830
2055.000000	100.090761
2054.000000	100.090094
2053.000000	100.089295
2052.000000	100.088997
2051.000000	100.089354
2050.000000	100.089943
2049.000000	100.090221
2048.000000	100.090038
2047.000000	100.089644
2046.000000	100.089381
2045.000000	100.089418
2044.000000	100.089741
2043.000000	100.090184
2042.000000	100.090465
2041.000000	100.090357
2040.000000	100.089882
2039.000000	100.089278
2038.000000	100.088762
2037.000000	100.088360
2036.000000	100.088016
2035.000000	100.087734
2034.000000	100.087567
2033.000000	100.087498
2032.000000	100.087410
2031.000000	100.087183
2030.000000	100.086788
2029.000000	100.086307
2028.000000	100.085867
2027.000000	100.085550
2026.000000	100.085330
2025.000000	100.085098
2024.000000	100.084742
2023.000000	100.084243
2022.000000	100.083677
2021.000000	100.083134
2020.000000	100.082637
2019.000000	100.082155
2018.000000	100.081682
2017.000000	100.081253
2016.000000	100.080881
2015.000000	100.080516
2014.000000	100.080081
2013.000000	100.079547
2012.000000	100.078959
2011.000000	100.078408
2010.000000	100.077950
2009.000000	100.077549
2008.000000	100.077115
2007.000000	100.076612
2006.000000	100.076077
2005.000000	100.075555
2004.000000	100.075053
2003.000000	100.074565
2002.000000	100.074083
2001.000000	100.073571
2000.000000	100.072976
1999.000000	100.072287
1998.000000	100.071561
1997.000000	100.070894
1996.000000	100.070329
1995.000000	100.069837
1994.000000	100.069372
1993.000000	100.068950
1992.000000	100.068624
1991.000000	100.068411
1990.000000	100.068255
1989.000000	100.068050
1988.000000	100.067688
1987.000000	100.067141
1986.000000	100.066515
1985.000000	100.065982
1984.000000	100.065618
1983.000000	100.065357
1982.000000	100.065130
1981.000000	100.064970
1980.000000	100.064908
1979.000000	100.064848
1978.000000	100.064630
1977.000000	100.064195
1976.000000	100.063631
1975.000000	100.063114
1974.000000	100.062778
1973.000000	100.062632
1972.000000	100.062562
1971.000000	100.062420
1970.000000	100.062160
1969.000000	100.061896
1968.000000	100.061783
1967.000000	100.061819
1966.000000	100.061807
1965.000000	100.061574
1964.000000	100.061153
1963.000000	100.060766
1962.000000	100.060650
1961.000000	100.060897
1960.000000	100.061399
1959.000000	100.061907
1958.000000	100.062212
1957.000000	100.062269
1956.000000	100.062131
1955.000000	100.061801
1954.000000	100.061292
1953.000000	100.060767
1952.000000	100.060357
1951.000000	100.059847
1950.000000	100.058861
1949.000000	100.057502
1948.000000	100.056517
1947.000000	100.056516
1946.000000	100.057266
1945.000000	100.057968
1944.000000	100.058089
1943.000000	100.057526
1942.000000	100.056175
1941.000000	100.053935
1940.000000	100.051212
1939.000000	100.049016
1938.000000	100.048333
1937.000000	100.049378
1936.000000	100.051323
1935.000000	100.052793
1934.000000	100.052952
1933.000000	100.052238
1932.000000	100.051898
1931.000000	100.052565
1930.000000	100.053372
1929.000000	100.052824
1928.000000	100.050531
1927.000000	100.047690
1926.000000	100.045884
1925.000000	100.045530
1924.000000	100.045752
1923.000000	100.045484
1922.000000	100.044464
1921.000000	100.043079
1920.000000	100.041514
1919.000000	100.039437
1918.000000	100.036612
1917.000000	100.033523
1916.000000	100.031055
1915.000000	100.029667
1914.000000	100.029223
1913.000000	100.029195
1912.000000	100.028702
1911.000000	100.026820
1910.000000	100.023287
1909.000000	100.018885
1908.000000	100.014606
1907.000000	100.010456
1906.000000	100.005861
1905.000000	100.000913
1904.000000	99.996605
1903.000000	99.993732
1902.000000	99.992046
1901.000000	99.990684
1900.000000	99.988979
1899.000000	99.986669
1898.000000	99.983908
1897.000000	99.981091
1896.000000	99.978376
1895.000000	99.975439
1894.000000	99.972089
1893.000000	99.968890
1892.000000	99.966477
1891.000000	99.964511
1890.000000	99.962090
1889.000000	99.959254
1888.000000	99.957048
1887.000000	99.955895
1886.000000	99.955176
1885.000000	99.954475
1884.000000	99.954054
1883.000000	99.953808
1882.000000	99.952698
1881.000000	99.950066
1880.000000	99.946900
1879.000000	99.945021
1878.000000	99.945431
1877.000000	99.947637
1876.000000	99.949987
1875.000000	99.950610
1874.000000	99.948670
1873.000000	99.945161
1872.000000	99.942208
1871.000000	99.941350
1870.000000	99.942632
1869.000000	99.944999
1868.000000	99.947273
1867.000000	99.948821
1866.000000	99.949817
1865.000000	99.951303
1864.000000	99.954389
1863.000000	99.958941
1862.000000	99.963623
1861.000000	99.967561
1860.000000	99.971168
1859.000000	99.974632
1858.000000	99.976657
1857.000000	99.975994
1856.000000	99.973729
1855.000000	99.972662
1854.000000	99.974418
1853.000000	99.978127
1852.000000	99.981959
1851.000000	99.984964
1850.000000	99.987349
1849.000000	99.989564
1848.000000	99.991578
1847.000000	99.993069
1846.000000	99.994265
1845.000000	99.996437
1844.000000	100.000645
1843.000000	100.005661
1842.000000	100.008869
1841.000000	100.009281
1840.000000	100.008203
1839.000000	100.007587
1838.000000	100.008389
1837.000000	100.010332
1836.000000	100.012725
1835.000000	100.014732
1834.000000	100.015416
1833.000000	100.014666
1832.000000	100.013906
1831.000000	100.014919
1830.000000	100.017740
1829.000000	100.020400
1828.000000	100.021431
1827.000000	100.021205
1826.000000	100.020745
1825.000000	100.020549
1824.000000	100.020538
1823.000000	100.020546
1822.000000	100.020525
1821.000000	100.020524
1820.000000	100.020491
1819.000000	100.020004
1818.000000	100.018531
1817.000000	100.016211
1816.000000	100.014187
1815.000000	100.013488
1814.000000	100.013799
1813.000000	100.014092
1812.000000	100.014140
1811.000000	100.014773
1810.000000	100.016423
1809.000000	100.018382
1808.000000	100.020007
1807.000000	100.021546
1806.000000	100.023261
1805.000000	100.024595
1804.000000	100.024779
1803.000000	100.023779
1802.000000	100.022230
1801.000000	100.020945
1800.000000	100.020639
1799.000000	100.021897
1798.000000	100.024772
1797.000000	100.028445
1796.000000	100.031693
1795.000000	100.033770
1794.000000	100.034713
1793.000000	100.035044
1792.000000	100.035264
1791.000000	100.035642
1790.000000	100.036351
1789.000000	100.037710
1788.000000	100.039998
1787.000000	100.042797
1786.000000	100.044779
1785.000000	100.044767
1784.000000	100.043138
1783.000000	100.041490
1782.000000	100.040879
1781.000000	100.041424
1780.000000	100.042898
1779.000000	100.045098
1778.000000	100.047616
1777.000000	100.049816
1776.000000	100.051293
1775.000000	100.052038
1774.000000	100.052433
1773.000000	100.053395
1772.000000	100.056085
1771.000000	100.060623
1770.000000	100.065672
1769.000000	100.069752
1768.000000	100.072357
1767.000000	100.073787
1766.000000	100.074385
1765.000000	100.074430
1764.000000	100.074684
1763.000000	100.076501
1762.000000	100.080357
1761.000000	100.084604
1760.000000	100.086915
1759.000000	100.086651
1758.000000	100.084734
1757.000000	100.082734
1756.000000	100.082066
1755.000000	100.082988
1754.000000	100.084731
1753.000000	100.086560
1752.000000	100.088420
1751.000000	100.090537
1750.000000	100.092565
1749.000000	100.093298
1748.000000	100.092033
1747.000000	100.089590
1746.000000	100.087539
1745.000000	100.086739
1744.000000	100.086526
1743.000000	100.085571
1742.000000	100.083434
1741.000000	100.081117
1740.000000	100.080092
1739.000000	100.080698
1738.000000	100.081593
1737.000000	100.081368
1736.000000	100.079995
1735.000000	100.078578
1734.000000	100.077801
1733.000000	100.077088
1732.000000	100.075322
1731.000000	100.071307
1730.000000	100.064586
1729.000000	100.056595
1728.000000	100.050442
1727.000000	100.048197
1726.000000	100.049093
1725.000000	100.050620
1724.000000	100.050765
1723.000000	100.049415
1722.000000	100.047184
1721.000000	100.043936
1720.000000	100.039334
1719.000000	100.034122
1718.000000	100.030055
1717.000000	100.027826
1716.000000	100.026400
1715.000000	100.025050
1714.000000	100.023590
1713.000000	100.021347
1712.000000	100.017503
1711.000000	100.012020
1710.000000	100.005698
1709.000000	99.999578
1708.000000	99.993998
1707.000000	99.988175
1706.000000	99.981452
1705.000000	99.974861
1704.000000	99.970323
1703.000000	99.967863
1702.000000	99.965258
1701.000000	99.959284
1700.000000	99.949106
1699.000000	99.938713
1698.000000	99.930085
1697.000000	99.921533
1696.000000	99.912929
1695.000000	99.906263
1694.000000	99.901700
1693.000000	99.897182
1692.000000	99.891386
1691.000000	99.884265
1690.000000	99.875966
1689.000000	99.866737
1688.000000	99.857417
1687.000000	99.848591
1686.000000	99.839778
1685.000000	99.829744
1684.000000	99.819592
1683.000000	99.813104
1682.000000	99.810220
1681.000000	99.807709
1680.000000	99.803312
1679.000000	99.796030
1678.000000	99.785760
1677.000000	99.773501
1676.000000	99.761990
1675.000000	99.754574
1674.000000	99.751252
1673.000000	99.748893
1672.000000	99.745322
1671.000000	99.740293
1670.000000	99.733572
1669.000000	99.725115
1668.000000	99.716708
1667.000000	99.709893
1666.000000	99.703341
1665.000000	99.693898
1664.000000	99.679971
1663.000000	99.664858
1662.000000	99.654444
1661.000000	99.650202
1660.000000	99.648591
1659.000000	99.646395
1658.000000	99.643149
1657.000000	99.640101
1656.000000	99.638421
1655.000000	99.638272
1654.000000	99.637002
1653.000000	99.629654
1652.000000	99.619959
1651.000000	99.615159
1650.000000	99.614035
1649.000000	99.612760
1648.000000	99.608164
1647.000000	99.599973
1646.000000	99.592543
1645.000000	99.589469
1644.000000	99.589103
1643.000000	99.588331
1642.000000	99.585881
1641.000000	99.583066
1640.000000	99.582090
1639.000000	99.583010
1638.000000	99.583238
1637.000000	99.580404
1636.000000	99.576493
1635.000000	99.576427
1634.000000	99.580216
1633.000000	99.583562
1632.000000	99.585102
1631.000000	99.587122
1630.000000	99.592076
1629.000000	99.600269
1628.000000	99.610113
1627.000000	99.619677
1626.000000	99.627243
1625.000000	99.631750
1624.000000	99.633929
1623.000000	99.636993
1622.000000	99.643813
1621.000000	99.653601
1620.000000	99.663353
1619.000000	99.670704
1618.000000	99.675066
1617.000000	99.678267
1616.000000	99.684053
1615.000000	99.693819
1614.000000	99.705443
1613.000000	99.717013
1612.000000	99.728314
1611.000000	99.739324
1610.000000	99.749145
1609.000000	99.757168
1608.000000	99.763912
1607.000000	99.769800
1606.000000	99.774383
1605.000000	99.778016
1604.000000	99.782556
1603.000000	99.789095
1602.000000	99.796041
1601.000000	99.801164
1600.000000	99.805168
1599.000000	99.811185
1598.000000	99.820553
1597.000000	99.830559
1596.000000	99.837223
1595.000000	99.839580
1594.000000	99.840440
1593.000000	99.843390
1592.000000	99.849734
1591.000000	99.858227
1590.000000	99.866435
1589.000000	99.872329
1588.000000	99.875450
1587.000000	99.876999
1586.000000	99.878827
1585.000000	99.882020
1584.000000	99.886470
1583.000000	99.891374
1582.000000	99.896067
1581.000000	99.900057
1580.000000	99.902624
1579.000000	99.903078
1578.000000	99.902000
1577.000000	99.901872
1576.000000	99.904991
1575.000000	99.910085
1574.000000	99.914165
1573.000000	99.916544
1572.000000	99.918440
1571.000000	99.921269
1570.000000	99.925593
1569.000000	99.930910
1568.000000	99.936150
1567.000000	99.939998
1566.000000	99.941814
1565.000000	99.942328
1564.000000	99.943004
1563.000000	99.944139
1562.000000	99.944735
1561.000000	99.944423
1560.000000	99.944957
1559.000000	99.948018
1558.000000	99.951297
1557.000000	99.952372
1556.000000	99.952097
1555.000000	99.952421
1554.000000	99.954198
1553.000000	99.956777
1552.000000	99.958947
1551.000000	99.959888
1550.000000	99.959341
1549.000000	99.957757
1548.000000	99.956348
1547.000000	99.956161
1546.000000	99.957435
1545.000000	99.959694
1544.000000	99.962397
1543.000000	99.965395
1542.000000	99.968459
1541.000000	99.970309
1540.000000	99.969586
1539.000000	99.967585
1538.000000	99.966642
1537.000000	99.966848
1536.000000	99.967415
1535.000000	99.968060
1534.000000	99.968674
1533.000000	99.968869
1532.000000	99.968409
1531.000000	99.967737
1530.000000	99.967489
1529.000000	99.967846
1528.000000	99.968454
1527.000000	99.969061
1526.000000	99.970047
1525.000000	99.971958
1524.000000	99.974639
1523.000000	99.977302
1522.000000	99.979074
1521.000000	99.979725
1520.000000	99.979998
1519.000000	99.980481
1518.000000	99.981089
1517.000000	99.981652
1516.000000	99.982173
1515.000000	99.982870
1514.000000	99.984148
1513.000000	99.986491
1512.000000	99.989745
1511.000000	99.992732
1510.000000	99.994188
1509.000000	99.994183
1508.000000	99.994673
1507.000000	99.998015
1506.000000	100.003053
1505.000000	100.006388
1504.000000	100.007807
1503.000000	100.008600
1502.000000	100.009307
1501.000000	100.009793
1500.000000	100.010071
1499.000000	100.010705
1498.000000	100.012414
1497.000000	100.015254
1496.000000	100.018438
1495.000000	100.020919
1494.000000	100.021635
1493.000000	100.020076
1492.000000	100.017374
1491.000000	100.016489
1490.000000	100.019619
1489.000000	100.025125
1488.000000	100.029614
1487.000000	100.032235
1486.000000	100.033831
1485.000000	100.034544
1484.000000	100.034334
1483.000000	100.033817
1482.000000	100.033755
1481.000000	100.033762
1480.000000	100.032767
1479.000000	100.030801
1478.000000	100.029195
1477.000000	100.028856
1476.000000	100.028889
1475.000000	100.027708
1474.000000	100.025030
1473.000000	100.022465
1472.000000	100.021408
1471.000000	100.020993
1470.000000	100.019708
1469.000000	100.017572
1468.000000	100.015754
1467.000000	100.015223
1466.000000	100.015766
1465.000000	100.016261
1464.000000	100.015859
1463.000000	100.014410
1462.000000	100.012008
1461.000000	100.008761
1460.000000	100.004876
1459.000000	100.000223
1458.000000	99.994473
1457.000000	99.988902
1456.000000	99.986275
1455.000000	99.986133
1454.000000	99.985356
1453.000000	99.982382
1452.000000	99.977822
1451.000000	99.972662
1450.000000	99.966827
1449.000000	99.960610
1448.000000	99.956326
1447.000000	99.955608
1446.000000	99.955566
1445.000000	99.951974
1444.000000	99.944493
1443.000000	99.936993
1442.000000	99.933175
1441.000000	99.932868
1440.000000	99.933229
1439.000000	99.931775
1438.000000	99.927644
1437.000000	99.921619
1436.000000	99.916418
1435.000000	99.913905
1434.000000	99.912508
1433.000000	99.909514
1432.000000	99.904094
1431.000000	99.897703
1430.000000	99.892269
1429.000000	99.888506
1428.000000	99.886526
1427.000000	99.886625
1426.000000	99.888408
1425.000000	99.890940
1424.000000	99.893890
1423.000000	99.897824
1422.000000	99.902840
1421.000000	99.907546
1420.000000	99.910043
1419.000000	99.910481
1418.000000	99.912152
1417.000000	99.916866
1416.000000	99.922616
1415.000000	99.926699
1414.000000	99.928235
1413.000000	99.928414
1412.000000	99.929033
1411.000000	99.930912
1410.000000	99.933793
1409.000000	99.937438
1408.000000	99.942227
1407.000000	99.948530
1406.000000	99.955682
1405.000000	99.962703
1404.000000	99.969712
1403.000000	99.977585
1402.000000	99.986252
1401.000000	99.994081
1400.000000	99.998979
1399.000000	100.000253
1398.000000	99.999669
1397.000000	100.000072
1396.000000	100.003877
1395.000000	100.012196
1394.000000	100.023147
1393.000000	100.032566
1392.000000	100.037819
1391.000000	100.039673
1390.000000	100.040982
1389.000000	100.044323
1388.000000	100.050196
1387.000000	100.056812
1386.000000	100.061740
1385.000000	100.063951
1384.000000	100.064233
1383.000000	100.064438
1382.000000	100.066233
1381.000000	100.069529
1380.000000	100.072378
1379.000000	100.072872
1378.000000	100.071017
1377.000000	100.068606
1376.000000	100.067492
1375.000000	100.068275
1374.000000	100.070312
1373.000000	100.072785
1372.000000	100.075550
1371.000000	100.078734
1370.000000	100.081745
1369.000000	100.083466
1368.000000	100.083658
1367.000000	100.083484
1366.000000	100.083921
1365.000000	100.084343
1364.000000	100.083618
1363.000000	100.082453
1362.000000	100.083291
1361.000000	100.086963
1360.000000	100.091301
1359.000000	100.093742
1358.000000	100.093572
1357.000000	100.091633
1356.000000	100.089271
1355.000000	100.087998
1354.000000	100.089033
1353.000000	100.091909
1352.000000	100.094075
1351.000000	100.093242
1350.000000	100.089919
1349.000000	100.087085
1348.000000	100.086923
1347.000000	100.088620
1346.000000	100.089795
1345.000000	100.089372
1344.000000	100.088525
1343.000000	100.089093
1342.000000	100.091492
1341.000000	100.094165
1340.000000	100.094948
1339.000000	100.093067
1338.000000	100.089591
1337.000000	100.085978
1336.000000	100.083165
1335.000000	100.082123
1334.000000	100.083893
1333.000000	100.088266
1332.000000	100.093124
1331.000000	100.096068
1330.000000	100.096568
1329.000000	100.095816
1328.000000	100.094703
1327.000000	100.092868
1326.000000	100.089806
1325.000000	100.086138
1324.000000	100.083421
1323.000000	100.082987
1322.000000	100.084938
1321.000000	100.087957
1320.000000	100.090236
1319.000000	100.091019
1318.000000	100.091185
1317.000000	100.091875
1316.000000	100.092884
1315.000000	100.093040
1314.000000	100.091803
1313.000000	100.089881
1312.000000	100.088455
1311.000000	100.088301
1310.000000	100.089493
1309.000000	100.091368
1308.000000	100.092884
1307.000000	100.093470
1306.000000	100.093336
1305.000000	100.092759
1304.000000	100.091708
1303.000000	100.090686
1302.000000	100.090988
1301.000000	100.092940
1300.000000	100.094662
1299.000000	100.094174
1298.000000	100.092226
1297.000000	100.091204
1296.000000	100.091270
1295.000000	100.089793
1294.000000	100.085377
1293.000000	100.080342
1292.000000	100.077847
1291.000000	100.077966
1290.000000	100.078382
1289.000000	100.077983
1288.000000	100.077763
1287.000000	100.078258
1286.000000	100.077958
1285.000000	100.074906
1284.000000	100.068949
1283.000000	100.062032
1282.000000	100.056865
1281.000000	100.055262
1280.000000	100.056965
1279.000000	100.059644
1278.000000	100.060537
1277.000000	100.058488
1276.000000	100.054370
1275.000000	100.049779
1274.000000	100.045722
1273.000000	100.042413
1272.000000	100.039865
1271.000000	100.038583
1270.000000	100.039583
1269.000000	100.043094
1268.000000	100.047085
1267.000000	100.048165
1266.000000	100.044904
1265.000000	100.039448
1264.000000	100.034789
1263.000000	100.031411
1262.000000	100.028075
1261.000000	100.024695
1260.000000	100.022042
1259.000000	100.019053
1258.000000	100.013350
1257.000000	100.004817
1256.000000	99.996090
1255.000000	99.988568
1254.000000	99.980069
1253.000000	99.967718
1252.000000	99.951473
1251.000000	99.933681
1250.000000	99.916734
1249.000000	99.902258
1248.000000	99.890825
1247.000000	99.880734
1246.000000	99.868486
1245.000000	99.852199
1244.000000	99.833453
1243.000000	99.814641
1242.000000	99.796268
1241.000000	99.778463
1240.000000	99.762833
1239.000000	99.749873
1238.000000	99.736103
1237.000000	99.717405
1236.000000	99.694738
1235.000000	99.673279
1234.000000	99.655668
1233.000000	99.639087
1232.000000	99.619703
1231.000000	99.596962
1230.000000	99.572276
1229.000000	99.545792
1228.000000	99.516236
1227.000000	99.482869
1226.000000	99.446187
1225.000000	99.407026
1224.000000	99.365338
1223.000000	99.319508
1222.000000	99.267215
1221.000000	99.207864
1220.000000	99.143844
1219.000000	99.078113
1218.000000	99.010856
1217.000000	98.939986
1216.000000	98.864458
1215.000000	98.785265
1214.000000	98.703652
1213.000000	98.620544
1212.000000	98.537429
1211.000000	98.455446
1210.000000	98.373652
1209.000000	98.290322
1208.000000	98.205351
1207.000000	98.119025
1206.000000	98.029924
1205.000000	97.937845
1204.000000	97.847555
1203.000000	97.764705
1202.000000	97.687942
1201.000000	97.609485
1200.000000	97.524134
1199.000000	97.434010
1198.000000	97.344163
1197.000000	97.257564
1196.000000	97.174896
1195.000000	97.094733
1194.000000	97.012720
1193.000000	96.924625
1192.000000	96.831616
1191.000000	96.739495
1190.000000	96.651890
1189.000000	96.567140
1188.000000	96.481968
1187.000000	96.394546
1186.000000	96.303882
1185.000000	96.210197
1184.000000	96.116264
1183.000000	96.024400
1182.000000	95.931756
1181.000000	95.832705
1180.000000	95.726398
1179.000000	95.617957
1178.000000	95.511778
1177.000000	95.407385
1176.000000	95.301681
1175.000000	95.191043
1174.000000	95.071941
1173.000000	94.944524
1172.000000	94.814989
1171.000000	94.689232
1170.000000	94.565219
1169.000000	94.437772
1168.000000	94.309809
1167.000000	94.191511
1166.000000	94.089304
1165.000000	94.004750
1164.000000	93.944871
1163.000000	93.923327
1162.000000	93.947084
1161.000000	94.007428
1160.000000	94.084779
1159.000000	94.156279
1158.000000	94.200158
1157.000000	94.202722
1156.000000	94.164734
1155.000000	94.096613
1154.000000	94.006725
1153.000000	93.898989
1152.000000	93.780386
1151.000000	93.661721
1150.000000	93.548679
1149.000000	93.439205
1148.000000	93.330999
1147.000000	93.224088
1146.000000	93.115526
1145.000000	93.000616
1144.000000	92.881252
1143.000000	92.764520
1142.000000	92.651076
1141.000000	92.533697
1140.000000	92.409375
1139.000000	92.283617
1138.000000	92.160331
1137.000000	92.036628
1136.000000	91.910312
1135.000000	91.783135
1134.000000	91.653655
1133.000000	91.516448
1132.000000	91.371954
1131.000000	91.228063
1130.000000	91.088494
1129.000000	90.948593
1128.000000	90.805843
1127.000000	90.664803
1126.000000	90.527601
1125.000000	90.388677
1124.000000	90.243307
1123.000000	90.093424
1122.000000	89.942093
1121.000000	89.790419
1120.000000	89.642082
1119.000000	89.501810
1118.000000	89.367402
1117.000000	89.232634
1116.000000	89.098616
1115.000000	88.971522
1114.000000	88.849029
1113.000000	88.721770
1112.000000	88.588960
1111.000000	88.458565
1110.000000	88.331400
1109.000000	88.200254
1108.000000	88.066024
1107.000000	87.938509
1106.000000	87.818383
1105.000000	87.694447
1104.000000	87.562230
1103.000000	87.429280
1102.000000	87.298283
1101.000000	87.161705
1100.000000	87.018074
1099.000000	86.877206
1098.000000	86.743478
1097.000000	86.609582
1096.000000	86.472499
1095.000000	86.340013
1094.000000	86.215492
1093.000000	86.091598
1092.000000	85.964890
1091.000000	85.841629
1090.000000	85.723930
1089.000000	85.605531
1088.000000	85.486269
1087.000000	85.374992
1086.000000	85.273164
1085.000000	85.171503
1084.000000	85.067629
1083.000000	84.970702
1082.000000	84.883649
1081.000000	84.797258
1080.000000	84.707101
1079.000000	84.619934
1078.000000	84.538110
1077.000000	84.453771
1076.000000	84.363390
1075.000000	84.271507
1074.000000	84.175295
1073.000000	84.062024
1072.000000	83.926615
1071.000000	83.775823
1070.000000	83.611640
1069.000000	83.427138
1068.000000	83.222226
1067.000000	83.005935
1066.000000	82.779154
1065.000000	82.533762
1064.000000	82.274028
1063.000000	82.019798
1062.000000	81.781862
1061.000000	81.552309
1060.000000	81.325016
1059.000000	81.105941
1058.000000	80.896756
1057.000000	80.687980
1056.000000	80.475404
1055.000000	80.264142
1054.000000	80.049612
1053.000000	79.814527
1052.000000	79.553884
1051.000000	79.283660
1050.000000	79.015146
1049.000000	78.741462
1048.000000	78.458443
1047.000000	78.174716
1046.000000	77.892102
1045.000000	77.598830
1044.000000	77.290094
1043.000000	76.976042
1042.000000	76.664066
1041.000000	76.351877
1040.000000	76.042314
1039.000000	75.744984
1038.000000	75.459048
1037.000000	75.175196
1036.000000	74.898109
1035.000000	74.644333
1034.000000	74.414256
1033.000000	74.190430
1032.000000	73.968761
1031.000000	73.767123
1030.000000	73.597056
1029.000000	73.450602
1028.000000	73.320092
1027.000000	73.206665
1026.000000	73.103570
1025.000000	72.995738
1024.000000	72.882621
1023.000000	72.778574
1022.000000	72.685952
1021.000000	72.591142
1020.000000	72.490419
1019.000000	72.394214
1018.000000	72.301749
1017.000000	72.197899
1016.000000	72.080462
1015.000000	71.964775
1014.000000	71.856104
1013.000000	71.743236
1012.000000	71.624494
1011.000000	71.513906
1010.000000	71.415844
1009.000000	71.319362
1008.000000	71.223589
1007.000000	71.142956
1006.000000	71.080891
1005.000000	71.023673
1004.000000	70.966573
1003.000000	70.921322
1002.000000	70.891729
1001.000000	70.866857
1000.000000	70.844008
999.000000	70.833383
998.000000	70.834311
997.000000	70.832518
996.000000	70.827256
995.000000	70.835652
994.000000	70.863143
993.000000	70.894102
992.000000	70.918531
991.000000	70.944274
990.000000	70.976485
989.000000	71.009421
988.000000	71.045549
987.000000	71.099154
986.000000	71.173752
985.000000	71.258175
984.000000	71.350728
983.000000	71.464535
982.000000	71.603176
981.000000	71.753748
980.000000	71.910365
979.000000	72.083297
978.000000	72.279642
977.000000	72.495821
976.000000	72.733008
975.000000	72.998582
974.000000	73.288371
973.000000	73.588175
972.000000	73.895949
971.000000	74.222015
970.000000	74.565750
969.000000	74.913514
968.000000	75.260871
967.000000	75.614646
966.000000	75.971440
965.000000	76.317037
964.000000	76.650155
963.000000	76.984936
962.000000	77.326384
961.000000	77.663709
960.000000	77.990883
959.000000	78.313410
958.000000	78.631595
957.000000	78.936686
956.000000	79.226735
955.000000	79.507833
954.000000	79.777643
953.000000	80.026383
952.000000	80.255804
951.000000	80.478128
950.000000	80.694199
949.000000	80.891814
948.000000	81.067736
947.000000	81.231689
946.000000	81.385836
945.000000	81.519814
944.000000	81.630580
943.000000	81.729516
942.000000	81.825836
941.000000	81.919105
940.000000	82.010657
939.000000	82.105004
938.000000	82.197547
937.000000	82.278579
936.000000	82.351923
935.000000	82.432274
934.000000	82.522587
933.000000	82.612598
932.000000	82.700714
931.000000	82.796754
930.000000	82.900526
929.000000	82.998968
928.000000	83.088941
927.000000	83.182420
926.000000	83.283785
925.000000	83.381372
924.000000	83.467067
923.000000	83.545662
922.000000	83.619363
921.000000	83.681344
920.000000	83.730645
919.000000	83.776478
918.000000	83.822646
917.000000	83.864327
916.000000	83.904115
915.000000	83.953353
914.000000	84.013719
913.000000	84.076843
912.000000	84.147380
911.000000	84.246758
910.000000	84.387493
909.000000	84.562347
908.000000	84.764352
907.000000	84.998056
906.000000	85.263968
905.000000	85.550865
904.000000	85.851466
903.000000	86.169084
902.000000	86.502344
901.000000	86.839852
900.000000	87.176123
899.000000	87.517042
898.000000	87.863702
897.000000	88.205552
896.000000	88.534332
895.000000	88.850627
894.000000	89.153145
893.000000	89.436540
892.000000	89.703891
891.000000	89.966498
890.000000	90.226329
889.000000	90.472439
888.000000	90.699535
887.000000	90.916752
886.000000	91.133423
885.000000	91.349019
884.000000	91.561522
883.000000	91.772394
882.000000	91.978601
881.000000	92.173074
880.000000	92.358086
879.000000	92.545551
878.000000	92.740153
877.000000	92.935962
876.000000	93.133109
875.000000	93.341341
874.000000	93.561616
873.000000	93.780600
872.000000	93.990265
871.000000	94.197855
870.000000	94.409476
869.000000	94.618157
868.000000	94.816647
867.000000	95.009858
866.000000	95.205832
865.000000	95.403595
864.000000	95.597511
863.000000	95.785738
862.000000	95.967881
861.000000	96.141320
860.000000	96.305839
859.000000	96.465697
858.000000	96.621879
857.000000	96.767796
856.000000	96.897269
855.000000	97.011983
854.000000	97.117812
853.000000	97.218435
852.000000	97.314868
851.000000	97.405880
850.000000	97.486824
849.000000	97.553286
848.000000	97.606648
847.000000	97.650164
846.000000	97.680302
845.000000	97.690881
844.000000	97.686149
843.000000	97.678604
842.000000	97.670085
841.000000	97.645267
840.000000	97.589059
839.000000	97.501631
838.000000	97.391908
837.000000	97.265973
836.000000	97.129052
835.000000	96.990983
834.000000	96.861724
833.000000	96.746882
832.000000	96.652957
831.000000	96.588707
830.000000	96.553910
829.000000	96.535016
828.000000	96.521524
827.000000	96.520789
826.000000	96.547154
825.000000	96.600952
824.000000	96.667385
823.000000	96.732051
822.000000	96.789050
821.000000	96.837035
820.000000	96.874841
819.000000	96.900034
818.000000	96.908107
817.000000	96.893944
816.000000	96.853934
815.000000	96.783340
814.000000	96.672304
813.000000	96.509875
812.000000	96.292149
811.000000	96.019844
810.000000	95.686431
809.000000	95.276547
808.000000	94.780738
807.000000	94.206813
806.000000	93.574581
805.000000	92.907668
804.000000	92.235249
803.000000	91.591624
802.000000	91.004807
801.000000	90.491865
800.000000	90.070500
799.000000	89.764294
798.000000	89.588439
797.000000	89.538029
796.000000	89.594178
795.000000	89.732050
794.000000	89.921263
793.000000	90.130622
792.000000	90.336872
791.000000	90.522957
790.000000	90.671037
789.000000	90.767438
788.000000	90.811165
787.000000	90.805489
786.000000	90.743189
785.000000	90.612901
784.000000	90.419868
783.000000	90.188660
782.000000	89.946339
781.000000	89.716002
780.000000	89.525590
779.000000	89.405210
778.000000	89.370374
777.000000	89.419439
776.000000	89.546825
775.000000	89.743390
774.000000	89.985347
773.000000	90.242440
772.000000	90.500224
771.000000	90.758657
770.000000	91.008561
769.000000	91.227632
768.000000	91.402578
767.000000	91.538779
766.000000	91.645069
765.000000	91.725198
764.000000	91.788013
763.000000	91.848826
762.000000	91.913147
761.000000	91.972365
760.000000	92.021350
759.000000	92.067433
758.000000	92.117450
757.000000	92.170279
756.000000	92.227807
755.000000	92.298520
754.000000	92.383021
753.000000	92.469479
752.000000	92.550951
751.000000	92.635412
750.000000	92.732288
749.000000	92.841204
748.000000	92.960876
747.000000	93.096678
746.000000	93.250525
745.000000	93.413318
744.000000	93.576016
743.000000	93.740152
742.000000	93.911051
741.000000	94.089283
740.000000	94.274660
739.000000	94.469428
738.000000	94.670576
737.000000	94.866492
736.000000	95.047214
735.000000	95.211508
734.000000	95.360432
733.000000	95.492178
732.000000	95.607247
731.000000	95.710364
730.000000	95.801983
729.000000	95.874713
728.000000	95.923762
727.000000	95.956134
726.000000	95.985869
725.000000	96.024845
724.000000	96.080161
723.000000	96.154024
722.000000	96.242697
721.000000	96.339749
720.000000	96.441677
719.000000	96.546295
718.000000	96.647371
717.000000	96.738332
716.000000	96.820082
715.000000	96.896825
714.000000	96.964826
713.000000	97.014681
712.000000	97.044954
711.000000	97.063534
710.000000	97.074242
709.000000	97.072367
708.000000	97.055418
707.000000	97.027409
706.000000	96.988746
705.000000	96.931213
704.000000	96.846446
703.000000	96.729617
702.000000	96.570687
701.000000	96.351875
700.000000	96.060601
699.000000	95.702285
698.000000	95.303752
697.000000	94.915190
696.000000	94.605833
695.000000	94.437130
694.000000	94.428259
693.000000	94.550454
692.000000	94.753264
691.000000	94.990550
690.000000	95.227551
689.000000	95.442254
688.000000	95.630130
687.000000	95.799248
686.000000	95.953761
685.000000	96.088435
684.000000	96.200458
683.000000	96.296313
682.000000	96.384623
681.000000	96.470607
680.000000	96.558175
679.000000	96.648436
678.000000	96.735966
677.000000	96.815907
676.000000	96.895031
675.000000	96.983856
674.000000	97.080720
673.000000	97.174419
672.000000	97.257974
671.000000	97.329186
670.000000	97.382911
669.000000	97.418815
668.000000	97.459500
667.000000	97.540543
666.000000	97.659649
665.000000	97.775334
664.000000	97.868113
663.000000	97.949935
662.000000	98.030593
661.000000	98.102412
660.000000	98.155987
659.000000	98.193084
658.000000	98.215887
657.000000	98.219670
656.000000	98.206288
655.000000	98.188718
654.000000	98.174157
653.000000	98.158315
652.000000	98.144576
651.000000	98.149128
650.000000	98.174513
649.000000	98.200289
648.000000	98.215738
647.000000	98.241100
646.000000	98.299202
645.000000	98.382698
644.000000	98.467629
643.000000	98.544964
642.000000	98.623070
641.000000	98.709486
640.000000	98.802413
639.000000	98.890623
638.000000	98.954426
637.000000	98.981757
636.000000	98.991001
635.000000	99.021516
634.000000	99.088773
633.000000	99.163879
632.000000	99.209623
631.000000	99.219721
630.000000	99.218210
629.000000	99.238499
628.000000	99.309894
627.000000	99.441993
626.000000	99.604331
625.000000	99.744698
624.000000	99.843891
623.000000	99.928398
622.000000	100.020687
621.000000	100.106141
620.000000	100.165742
619.000000	100.207089
618.000000	100.236210
617.000000	100.229390
616.000000	100.169250
615.000000	100.088351
614.000000	100.044901
613.000000	100.059921
612.000000	100.108163
611.000000	100.156635
610.000000	100.185254
609.000000	100.183060
608.000000	100.147658
607.000000	100.087412
606.000000	100.013287
605.000000	99.933495
604.000000	99.861369
603.000000	99.811838
602.000000	99.781708
601.000000	99.753923
600.000000	99.729039
599.000000	99.727657
598.000000	99.751857
597.000000	99.773334
596.000000	99.771874
595.000000	99.755484
594.000000	99.732912
593.000000	99.698158
592.000000	99.657286
591.000000	99.636932
590.000000	99.644758
589.000000	99.656216
588.000000	99.659026
587.000000	99.671330
586.000000	99.701479
585.000000	99.731458
584.000000	99.760644
583.000000	99.820008
582.000000	99.917542
581.000000	100.017719
580.000000	100.093744
579.000000	100.143974
578.000000	100.149608
577.000000	100.086867
576.000000	100.004088
575.000000	100.008737
574.000000	100.124302
573.000000	100.240416
572.000000	100.252280
571.000000	100.159384
570.000000	100.010640
569.000000	99.824959
568.000000	99.616533
567.000000	99.439262
566.000000	99.330533
565.000000	99.256439
564.000000	99.164813
563.000000	99.035680
562.000000	98.855553
561.000000	98.611574
560.000000	98.342256
559.000000	98.127264
558.000000	97.983899
557.000000	97.845299
556.000000	97.677335
555.000000	97.522295
554.000000	97.397941
553.000000	97.263675
552.000000	97.126401
551.000000	97.050870
550.000000	97.012976
