PE IR       SUBTECH     SPECTRUM    ASCII       PEDS        4.00        
   -1
BH-1(1)25-26_001_1.asc
24/05/14
10:33:55.00
24/05/14
10:34:41.00
Administrator
?品 008 用? Administrator 日期 Tuesday, May 14 2024
550.000000
#HDR
-1
-1
#GR
cm-1
%T
1.0
0.0
4000.000000
-1.000000
3451
8
100.365986
73.448071
#DATA
4000.000000	99.948834
3999.000000	99.949467
3998.000000	99.949878
3997.000000	99.950177
3996.000000	99.950408
3995.000000	99.950307
3994.000000	99.949562
3993.000000	99.948153
3992.000000	99.946418
3991.000000	99.944930
3990.000000	99.944061
3989.000000	99.943811
3988.000000	99.943935
3987.000000	99.944156
3986.000000	99.944293
3985.000000	99.944204
3984.000000	99.943804
3983.000000	99.943219
3982.000000	99.942775
3981.000000	99.942665
3980.000000	99.942644
3979.000000	99.942230
3978.000000	99.941265
3977.000000	99.940171
3976.000000	99.939546
3975.000000	99.939512
3974.000000	99.939643
3973.000000	99.939427
3972.000000	99.938744
3971.000000	99.937831
3970.000000	99.936858
3969.000000	99.935762
3968.000000	99.934710
3967.000000	99.934448
3966.000000	99.935737
3965.000000	99.938389
3964.000000	99.941054
3963.000000	99.942387
3962.000000	99.942350
3961.000000	99.942039
3960.000000	99.942218
3959.000000	99.942312
3958.000000	99.941105
3957.000000	99.938181
3956.000000	99.934481
3955.000000	99.931598
3954.000000	99.930560
3953.000000	99.931302
3952.000000	99.933066
3951.000000	99.935141
3950.000000	99.937163
3949.000000	99.938842
3948.000000	99.939732
3947.000000	99.939523
3946.000000	99.938490
3945.000000	99.937433
3944.000000	99.937022
3943.000000	99.937203
3942.000000	99.937312
3941.000000	99.936828
3940.000000	99.935901
3939.000000	99.935157
3938.000000	99.935144
3937.000000	99.936059
3936.000000	99.937938
3935.000000	99.940923
3934.000000	99.945149
3933.000000	99.950166
3932.000000	99.954553
3931.000000	99.956560
3930.000000	99.955405
3929.000000	99.951848
3928.000000	99.947609
3927.000000	99.944120
3926.000000	99.941734
3925.000000	99.939904
3924.000000	99.938070
3923.000000	99.936382
3922.000000	99.935555
3921.000000	99.936108
3920.000000	99.937810
3919.000000	99.939747
3918.000000	99.940897
3917.000000	99.940648
3916.000000	99.938940
3915.000000	99.936208
3914.000000	99.933313
3913.000000	99.931388
3912.000000	99.931395
3911.000000	99.933564
3910.000000	99.937171
3909.000000	99.940828
3908.000000	99.943239
3907.000000	99.943856
3906.000000	99.942951
3905.000000	99.941269
3904.000000	99.939530
3903.000000	99.938166
3902.000000	99.937492
3901.000000	99.937764
3900.000000	99.938891
3899.000000	99.940271
3898.000000	99.941165
3897.000000	99.941241
3896.000000	99.940670
3895.000000	99.939829
3894.000000	99.939040
3893.000000	99.938514
3892.000000	99.938348
3891.000000	99.938479
3890.000000	99.938698
3889.000000	99.938776
3888.000000	99.938576
3887.000000	99.938097
3886.000000	99.937505
3885.000000	99.937047
3884.000000	99.936878
3883.000000	99.936971
3882.000000	99.937186
3881.000000	99.937383
3880.000000	99.937485
3879.000000	99.937458
3878.000000	99.937297
3877.000000	99.937017
3876.000000	99.936642
3875.000000	99.936227
3874.000000	99.935838
3873.000000	99.935448
3872.000000	99.934990
3871.000000	99.934549
3870.000000	99.934399
3869.000000	99.934709
3868.000000	99.935264
3867.000000	99.935579
3866.000000	99.935318
3865.000000	99.934525
3864.000000	99.933541
3863.000000	99.932643
3862.000000	99.931863
3861.000000	99.931227
3860.000000	99.930910
3859.000000	99.931087
3858.000000	99.931746
3857.000000	99.932670
3856.000000	99.933555
3855.000000	99.934044
3854.000000	99.933839
3853.000000	99.933067
3852.000000	99.932389
3851.000000	99.932284
3850.000000	99.932693
3849.000000	99.933295
3848.000000	99.933842
3847.000000	99.934311
3846.000000	99.934813
3845.000000	99.935440
3844.000000	99.936187
3843.000000	99.936992
3842.000000	99.937774
3841.000000	99.938424
3840.000000	99.938799
3839.000000	99.938834
3838.000000	99.938664
3837.000000	99.938579
3836.000000	99.938776
3835.000000	99.939224
3834.000000	99.939757
3833.000000	99.940205
3832.000000	99.940516
3831.000000	99.940761
3830.000000	99.941040
3829.000000	99.941386
3828.000000	99.941754
3827.000000	99.942096
3826.000000	99.942422
3825.000000	99.942774
3824.000000	99.943149
3823.000000	99.943466
3822.000000	99.943648
3821.000000	99.943708
3820.000000	99.943745
3819.000000	99.943845
3818.000000	99.944017
3817.000000	99.944230
3816.000000	99.944416
3815.000000	99.944519
3814.000000	99.944537
3813.000000	99.944491
3812.000000	99.944369
3811.000000	99.944164
3810.000000	99.943929
3809.000000	99.943754
3808.000000	99.943688
3807.000000	99.943681
3806.000000	99.943645
3805.000000	99.943557
3804.000000	99.943442
3803.000000	99.943266
3802.000000	99.942898
3801.000000	99.942296
3800.000000	99.941673
3799.000000	99.941283
3798.000000	99.941100
3797.000000	99.940819
3796.000000	99.940209
3795.000000	99.939437
3794.000000	99.938910
3793.000000	99.938814
3792.000000	99.938911
3791.000000	99.938901
3790.000000	99.938854
3789.000000	99.939101
3788.000000	99.939753
3787.000000	99.940432
3786.000000	99.940554
3785.000000	99.939896
3784.000000	99.938816
3783.000000	99.937923
3782.000000	99.937539
3781.000000	99.937493
3780.000000	99.937371
3779.000000	99.937061
3778.000000	99.936947
3777.000000	99.937427
3776.000000	99.938376
3775.000000	99.939178
3774.000000	99.939389
3773.000000	99.939200
3772.000000	99.939267
3771.000000	99.940152
3770.000000	99.941807
3769.000000	99.943547
3768.000000	99.944595
3767.000000	99.944544
3766.000000	99.943523
3765.000000	99.942231
3764.000000	99.941570
3763.000000	99.942067
3762.000000	99.943604
3761.000000	99.945584
3760.000000	99.947226
3759.000000	99.947821
3758.000000	99.947078
3757.000000	99.945429
3756.000000	99.943996
3755.000000	99.944055
3754.000000	99.946318
3753.000000	99.950260
3752.000000	99.953827
3751.000000	99.954639
3750.000000	99.952325
3749.000000	99.948912
3748.000000	99.946474
3747.000000	99.945309
3746.000000	99.944438
3745.000000	99.942777
3744.000000	99.940030
3743.000000	99.937260
3742.000000	99.935672
3741.000000	99.935016
3740.000000	99.934171
3739.000000	99.932538
3738.000000	99.930258
3737.000000	99.927611
3736.000000	99.925032
3735.000000	99.923750
3734.000000	99.925101
3733.000000	99.928551
3732.000000	99.931308
3731.000000	99.930866
3730.000000	99.927546
3729.000000	99.924159
3728.000000	99.923611
3727.000000	99.926377
3726.000000	99.929835
3725.000000	99.930859
3724.000000	99.928867
3723.000000	99.925431
3722.000000	99.921358
3721.000000	99.915547
3720.000000	99.906871
3719.000000	99.896275
3718.000000	99.886657
3717.000000	99.880827
3716.000000	99.879702
3715.000000	99.882048
3714.000000	99.884968
3713.000000	99.884683
3712.000000	99.878380
3711.000000	99.866875
3710.000000	99.854424
3709.000000	99.844762
3708.000000	99.838575
3707.000000	99.834472
3706.000000	99.830584
3705.000000	99.825027
3704.000000	99.816088
3703.000000	99.803109
3702.000000	99.787877
3701.000000	99.774219
3700.000000	99.765252
3699.000000	99.761416
3698.000000	99.760986
3697.000000	99.761437
3696.000000	99.760501
3695.000000	99.756958
3694.000000	99.751196
3693.000000	99.745081
3692.000000	99.740777
3691.000000	99.739414
3690.000000	99.740319
3689.000000	99.741498
3688.000000	99.741185
3687.000000	99.738996
3686.000000	99.735354
3685.000000	99.730691
3684.000000	99.725907
3683.000000	99.722493
3682.000000	99.721428
3681.000000	99.721831
3680.000000	99.721149
3679.000000	99.716586
3678.000000	99.706578
3677.000000	99.691841
3676.000000	99.675371
3675.000000	99.660327
3674.000000	99.647460
3673.000000	99.635947
3672.000000	99.625493
3671.000000	99.616280
3670.000000	99.607172
3669.000000	99.595700
3668.000000	99.580820
3667.000000	99.564026
3666.000000	99.547369
3665.000000	99.531463
3664.000000	99.515276
3663.000000	99.497687
3662.000000	99.479146
3661.000000	99.461592
3660.000000	99.447006
3659.000000	99.436198
3658.000000	99.428292
3657.000000	99.420462
3656.000000	99.409069
3655.000000	99.392869
3654.000000	99.374349
3653.000000	99.357355
3652.000000	99.344247
3651.000000	99.334430
3650.000000	99.325029
3649.000000	99.314131
3648.000000	99.302496
3647.000000	99.290905
3646.000000	99.278540
3645.000000	99.264507
3644.000000	99.248973
3643.000000	99.232547
3642.000000	99.215629
3641.000000	99.198661
3640.000000	99.182535
3639.000000	99.167915
3638.000000	99.154248
3637.000000	99.140228
3636.000000	99.125659
3635.000000	99.112304
3634.000000	99.101873
3633.000000	99.093305
3632.000000	99.082913
3631.000000	99.067806
3630.000000	99.049755
3629.000000	99.034413
3628.000000	99.024304
3627.000000	99.015974
3626.000000	99.005843
3625.000000	98.993948
3624.000000	98.982615
3623.000000	98.974405
3622.000000	98.971403
3621.000000	98.975583
3620.000000	98.987501
3619.000000	99.003518
3618.000000	99.017424
3617.000000	99.026979
3616.000000	99.036235
3615.000000	99.050643
3614.000000	99.071110
3613.000000	99.092907
3612.000000	99.110791
3611.000000	99.124416
3610.000000	99.137656
3609.000000	99.153506
3608.000000	99.170534
3607.000000	99.184379
3606.000000	99.191981
3605.000000	99.193737
3604.000000	99.192638
3603.000000	99.192466
3602.000000	99.196237
3601.000000	99.205105
3600.000000	99.217850
3599.000000	99.231570
3598.000000	99.243709
3597.000000	99.253870
3596.000000	99.263645
3595.000000	99.274660
3594.000000	99.286779
3593.000000	99.298859
3592.000000	99.310816
3591.000000	99.323668
3590.000000	99.337346
3589.000000	99.349097
3588.000000	99.354970
3587.000000	99.353590
3586.000000	99.347518
3585.000000	99.340644
3584.000000	99.335482
3583.000000	99.332681
3582.000000	99.331830
3581.000000	99.332229
3580.000000	99.333307
3579.000000	99.334759
3578.000000	99.336337
3577.000000	99.337590
3576.000000	99.338032
3575.000000	99.337839
3574.000000	99.338199
3573.000000	99.340458
3572.000000	99.344646
3571.000000	99.348956
3570.000000	99.350746
3569.000000	99.348405
3568.000000	99.342752
3567.000000	99.336576
3566.000000	99.332567
3565.000000	99.331997
3564.000000	99.334848
3563.000000	99.339650
3562.000000	99.343588
3561.000000	99.344267
3560.000000	99.341928
3559.000000	99.339204
3558.000000	99.338222
3557.000000	99.338214
3556.000000	99.336373
3555.000000	99.330722
3554.000000	99.322182
3553.000000	99.314068
3552.000000	99.309497
3551.000000	99.309094
3550.000000	99.311316
3549.000000	99.314411
3548.000000	99.317782
3547.000000	99.321468
3546.000000	99.324884
3545.000000	99.326816
3544.000000	99.326733
3543.000000	99.325391
3542.000000	99.324048
3541.000000	99.323413
3540.000000	99.323359
3539.000000	99.323281
3538.000000	99.322655
3537.000000	99.321460
3536.000000	99.320229
3535.000000	99.319593
3534.000000	99.319669
3533.000000	99.319965
3532.000000	99.319875
3531.000000	99.319219
3530.000000	99.318282
3529.000000	99.317443
3528.000000	99.316856
3527.000000	99.316448
3526.000000	99.316105
3525.000000	99.315767
3524.000000	99.315423
3523.000000	99.315079
3522.000000	99.314749
3521.000000	99.314447
3520.000000	99.314170
3519.000000	99.313911
3518.000000	99.313674
3517.000000	99.313467
3516.000000	99.313274
3515.000000	99.313076
3514.000000	99.312873
3513.000000	99.312672
3512.000000	99.312471
3511.000000	99.312268
3510.000000	99.312061
3509.000000	99.311843
3508.000000	99.311604
3507.000000	99.311339
3506.000000	99.311053
3505.000000	99.310756
3504.000000	99.310454
3503.000000	99.310152
3502.000000	99.309846
3501.000000	99.309531
3500.000000	99.309202
3499.000000	99.308859
3498.000000	99.308506
3497.000000	99.308147
3496.000000	99.307786
3495.000000	99.307419
3494.000000	99.307041
3493.000000	99.306648
3492.000000	99.306235
3491.000000	99.305805
3490.000000	99.305358
3489.000000	99.304893
3488.000000	99.304397
3487.000000	99.303859
3486.000000	99.303278
3485.000000	99.302669
3484.000000	99.302044
3483.000000	99.301399
3482.000000	99.300703
3481.000000	99.299911
3480.000000	99.298993
3479.000000	99.297964
3478.000000	99.296915
3477.000000	99.295972
3476.000000	99.295220
3475.000000	99.294602
3474.000000	99.293916
3473.000000	99.292975
3472.000000	99.291759
3471.000000	99.290429
3470.000000	99.289200
3469.000000	99.288222
3468.000000	99.287553
3467.000000	99.287070
3466.000000	99.286381
3465.000000	99.285014
3464.000000	99.282845
3463.000000	99.280363
3462.000000	99.278388
3461.000000	99.277519
3460.000000	99.277792
3459.000000	99.278582
3458.000000	99.278787
3457.000000	99.277498
3456.000000	99.274740
3455.000000	99.271621
3454.000000	99.269470
3453.000000	99.268596
3452.000000	99.268120
3451.000000	99.266994
3450.000000	99.265004
3449.000000	99.262732
3448.000000	99.260768
3447.000000	99.259074
3446.000000	99.256971
3445.000000	99.253765
3444.000000	99.249492
3443.000000	99.245039
3442.000000	99.241377
3441.000000	99.238696
3440.000000	99.236469
3439.000000	99.234206
3438.000000	99.231905
3437.000000	99.229919
3436.000000	99.228741
3435.000000	99.228748
3434.000000	99.229604
3433.000000	99.230035
3432.000000	99.228836
3431.000000	99.226239
3430.000000	99.223858
3429.000000	99.223073
3428.000000	99.223818
3427.000000	99.225013
3426.000000	99.225719
3425.000000	99.225636
3424.000000	99.224912
3423.000000	99.223909
3422.000000	99.222970
3421.000000	99.222052
3420.000000	99.220690
3419.000000	99.218503
3418.000000	99.215544
3417.000000	99.211970
3416.000000	99.207725
3415.000000	99.202968
3414.000000	99.198650
3413.000000	99.196219
3412.000000	99.196718
3411.000000	99.200243
3410.000000	99.205868
3409.000000	99.211754
3408.000000	99.215698
3407.000000	99.216325
3406.000000	99.213957
3405.000000	99.210366
3404.000000	99.207545
3403.000000	99.206596
3402.000000	99.207639
3401.000000	99.210192
3400.000000	99.213412
3399.000000	99.216359
3398.000000	99.218355
3397.000000	99.219067
3396.000000	99.218271
3395.000000	99.215953
3394.000000	99.212778
3393.000000	99.210157
3392.000000	99.209342
3391.000000	99.210513
3390.000000	99.212997
3389.000000	99.216121
3388.000000	99.219508
3387.000000	99.222702
3386.000000	99.225118
3385.000000	99.226578
3384.000000	99.227490
3383.000000	99.228163
3382.000000	99.228250
3381.000000	99.227189
3380.000000	99.225020
3379.000000	99.222488
3378.000000	99.220409
3377.000000	99.219142
3376.000000	99.218617
3375.000000	99.218630
3374.000000	99.219070
3373.000000	99.219970
3372.000000	99.221347
3371.000000	99.222951
3370.000000	99.224327
3369.000000	99.225296
3368.000000	99.226287
3367.000000	99.227912
3366.000000	99.230203
3365.000000	99.232509
3364.000000	99.234267
3363.000000	99.235603
3362.000000	99.236905
3361.000000	99.238058
3360.000000	99.238565
3359.000000	99.238429
3358.000000	99.238578
3357.000000	99.240094
3356.000000	99.243025
3355.000000	99.246051
3354.000000	99.247530
3353.000000	99.246896
3352.000000	99.244949
3351.000000	99.243140
3350.000000	99.242475
3349.000000	99.243095
3348.000000	99.244604
3347.000000	99.246510
3346.000000	99.248472
3345.000000	99.250316
3344.000000	99.251908
3343.000000	99.253047
3342.000000	99.253608
3341.000000	99.253844
3340.000000	99.254396
3339.000000	99.255793
3338.000000	99.257927
3337.000000	99.260133
3336.000000	99.261770
3335.000000	99.262640
3334.000000	99.262913
3333.000000	99.262869
3332.000000	99.262764
3331.000000	99.262689
3330.000000	99.262558
3329.000000	99.262331
3328.000000	99.262199
3327.000000	99.262338
3326.000000	99.262626
3325.000000	99.262938
3324.000000	99.263601
3323.000000	99.265029
3322.000000	99.266865
3321.000000	99.268088
3320.000000	99.268308
3319.000000	99.268378
3318.000000	99.269289
3317.000000	99.270865
3316.000000	99.272191
3315.000000	99.272969
3314.000000	99.273597
3313.000000	99.274023
3312.000000	99.273427
3311.000000	99.271322
3310.000000	99.268491
3309.000000	99.266421
3308.000000	99.266060
3307.000000	99.267367
3306.000000	99.269562
3305.000000	99.271675
3304.000000	99.273200
3303.000000	99.274421
3302.000000	99.276008
3301.000000	99.278198
3300.000000	99.280498
3299.000000	99.282193
3298.000000	99.282893
3297.000000	99.282572
3296.000000	99.281492
3295.000000	99.280339
3294.000000	99.280116
3293.000000	99.281450
3292.000000	99.283987
3291.000000	99.286614
3290.000000	99.288466
3289.000000	99.289608
3288.000000	99.290660
3287.000000	99.291896
3286.000000	99.292924
3285.000000	99.293312
3284.000000	99.293310
3283.000000	99.293637
3282.000000	99.294633
3281.000000	99.296012
3280.000000	99.297534
3279.000000	99.299363
3278.000000	99.301475
3277.000000	99.303243
3276.000000	99.304177
3275.000000	99.304813
3274.000000	99.306273
3273.000000	99.308979
3272.000000	99.312315
3271.000000	99.315365
3270.000000	99.317424
3269.000000	99.317924
3268.000000	99.316675
3267.000000	99.314381
3266.000000	99.312395
3265.000000	99.311611
3264.000000	99.311865
3263.000000	99.312487
3262.000000	99.313063
3261.000000	99.313582
3260.000000	99.314270
3259.000000	99.315478
3258.000000	99.317400
3257.000000	99.319744
3256.000000	99.321982
3255.000000	99.323978
3254.000000	99.325931
3253.000000	99.327718
3252.000000	99.328833
3251.000000	99.329204
3250.000000	99.329561
3249.000000	99.330607
3248.000000	99.332177
3247.000000	99.333608
3246.000000	99.334653
3245.000000	99.335534
3244.000000	99.336320
3243.000000	99.336893
3242.000000	99.337546
3241.000000	99.339071
3240.000000	99.342014
3239.000000	99.346047
3238.000000	99.350046
3237.000000	99.352743
3236.000000	99.353455
3235.000000	99.352530
3234.000000	99.351336
3233.000000	99.351359
3232.000000	99.353010
3231.000000	99.355405
3230.000000	99.357250
3229.000000	99.357932
3228.000000	99.357757
3227.000000	99.357384
3226.000000	99.357179
3225.000000	99.357110
3224.000000	99.357191
3223.000000	99.357860
3222.000000	99.359721
3221.000000	99.362829
3220.000000	99.366437
3219.000000	99.369613
3218.000000	99.371965
3217.000000	99.373549
3216.000000	99.374307
3215.000000	99.374067
3214.000000	99.373039
3213.000000	99.371889
3212.000000	99.371195
3211.000000	99.371198
3210.000000	99.372145
3209.000000	99.374315
3208.000000	99.377475
3207.000000	99.380798
3206.000000	99.383768
3205.000000	99.386827
3204.000000	99.390611
3203.000000	99.394713
3202.000000	99.397747
3201.000000	99.398729
3200.000000	99.398005
3199.000000	99.396880
3198.000000	99.396564
3197.000000	99.397529
3196.000000	99.399614
3195.000000	99.402393
3194.000000	99.405466
3193.000000	99.408683
3192.000000	99.412138
3191.000000	99.415752
3190.000000	99.418876
3189.000000	99.420639
3188.000000	99.420881
3187.000000	99.420509
3186.000000	99.420766
3185.000000	99.422128
3184.000000	99.424108
3183.000000	99.426031
3182.000000	99.427740
3181.000000	99.429538
3180.000000	99.431675
3179.000000	99.434021
3178.000000	99.436118
3177.000000	99.437468
3176.000000	99.437921
3175.000000	99.437889
3174.000000	99.438093
3173.000000	99.439003
3172.000000	99.440571
3171.000000	99.442482
3170.000000	99.444420
3169.000000	99.446030
3168.000000	99.446892
3167.000000	99.446859
3166.000000	99.446418
3165.000000	99.446502
3164.000000	99.447737
3163.000000	99.449976
3162.000000	99.452551
3161.000000	99.454943
3160.000000	99.457148
3159.000000	99.459396
3158.000000	99.461653
3157.000000	99.463482
3156.000000	99.464476
3155.000000	99.464713
3154.000000	99.464776
3153.000000	99.465260
3152.000000	99.466304
3151.000000	99.467746
3150.000000	99.469563
3149.000000	99.471880
3148.000000	99.474544
3147.000000	99.476979
3146.000000	99.478680
3145.000000	99.479740
3144.000000	99.480766
3143.000000	99.482275
3142.000000	99.484258
3141.000000	99.486363
3140.000000	99.488362
3139.000000	99.490301
3138.000000	99.492272
3137.000000	99.494235
3136.000000	99.496111
3135.000000	99.497927
3134.000000	99.499795
3133.000000	99.501781
3132.000000	99.503839
3131.000000	99.505872
3130.000000	99.507799
3129.000000	99.509595
3128.000000	99.511327
3127.000000	99.513150
3126.000000	99.515188
3125.000000	99.517391
3124.000000	99.519529
3123.000000	99.521390
3122.000000	99.522920
3121.000000	99.524215
3120.000000	99.525453
3119.000000	99.526872
3118.000000	99.528698
3117.000000	99.530976
3116.000000	99.533416
3115.000000	99.535514
3114.000000	99.536999
3113.000000	99.538013
3112.000000	99.538955
3111.000000	99.540112
3110.000000	99.541506
3109.000000	99.543062
3108.000000	99.544731
3107.000000	99.546443
3106.000000	99.548028
3105.000000	99.549313
3104.000000	99.550304
3103.000000	99.551256
3102.000000	99.552449
3101.000000	99.553893
3100.000000	99.555303
3099.000000	99.556375
3098.000000	99.557056
3097.000000	99.557575
3096.000000	99.558240
3095.000000	99.559184
3094.000000	99.560334
3093.000000	99.561536
3092.000000	99.562741
3091.000000	99.564053
3090.000000	99.565602
3089.000000	99.567336
3088.000000	99.568977
3087.000000	99.570218
3086.000000	99.570950
3085.000000	99.571302
3084.000000	99.571546
3083.000000	99.571983
3082.000000	99.572804
3081.000000	99.573916
3080.000000	99.574940
3079.000000	99.575566
3078.000000	99.575959
3077.000000	99.576671
3076.000000	99.578052
3075.000000	99.579873
3074.000000	99.581537
3073.000000	99.582636
3072.000000	99.583200
3071.000000	99.583585
3070.000000	99.584214
3069.000000	99.585279
3068.000000	99.586574
3067.000000	99.587674
3066.000000	99.588399
3065.000000	99.589033
3064.000000	99.589983
3063.000000	99.591357
3062.000000	99.593007
3061.000000	99.594807
3060.000000	99.596616
3059.000000	99.598084
3058.000000	99.598842
3057.000000	99.598858
3056.000000	99.598373
3055.000000	99.597531
3054.000000	99.596309
3053.000000	99.594897
3052.000000	99.593895
3051.000000	99.593973
3050.000000	99.595444
3049.000000	99.598129
3048.000000	99.601346
3047.000000	99.604047
3046.000000	99.605403
3045.000000	99.605546
3044.000000	99.605628
3043.000000	99.606754
3042.000000	99.608817
3041.000000	99.610634
3040.000000	99.611251
3039.000000	99.610859
3038.000000	99.610403
3037.000000	99.610570
3036.000000	99.611392
3035.000000	99.612630
3034.000000	99.614193
3033.000000	99.616063
3032.000000	99.617997
3031.000000	99.619455
3030.000000	99.619906
3029.000000	99.619275
3028.000000	99.618145
3027.000000	99.617486
3026.000000	99.618061
3025.000000	99.620092
3024.000000	99.623478
3023.000000	99.628159
3022.000000	99.634040
3021.000000	99.640501
3020.000000	99.646258
3019.000000	99.649987
3018.000000	99.651080
3017.000000	99.649742
3016.000000	99.646519
3015.000000	99.642140
3014.000000	99.637918
3013.000000	99.635845
3012.000000	99.637561
3011.000000	99.642894
3010.000000	99.649608
3009.000000	99.655181
3008.000000	99.658962
3007.000000	99.662268
3006.000000	99.666235
3005.000000	99.670103
3004.000000	99.672212
3003.000000	99.672411
3002.000000	99.672503
3001.000000	99.674007
3000.000000	99.676301
2999.000000	99.677789
2998.000000	99.678554
2997.000000	99.680805
2996.000000	99.686420
2995.000000	99.694666
2994.000000	99.702921
2993.000000	99.709500
2992.000000	99.715220
2991.000000	99.721991
2990.000000	99.730218
2989.000000	99.738118
2988.000000	99.743801
2987.000000	99.747584
2986.000000	99.751724
2985.000000	99.757841
2984.000000	99.765145
2983.000000	99.771407
2982.000000	99.775179
2981.000000	99.776760
2980.000000	99.777561
2979.000000	99.778990
2978.000000	99.781385
2977.000000	99.783223
2976.000000	99.781750
2975.000000	99.775584
2974.000000	99.766820
2973.000000	99.759584
2972.000000	99.755908
2971.000000	99.753649
2970.000000	99.749031
2969.000000	99.740492
2968.000000	99.729344
2967.000000	99.717354
2966.000000	99.704715
2965.000000	99.690431
2964.000000	99.673926
2963.000000	99.656254
2962.000000	99.640295
2961.000000	99.629443
2960.000000	99.625105
2959.000000	99.625129
2958.000000	99.625451
2957.000000	99.624014
2956.000000	99.622589
2955.000000	99.624026
2954.000000	99.628102
2953.000000	99.631059
2952.000000	99.629416
2951.000000	99.623587
2950.000000	99.617322
2949.000000	99.614024
2948.000000	99.614088
2947.000000	99.615431
2946.000000	99.615870
2945.000000	99.614740
2944.000000	99.612698
2943.000000	99.610543
2942.000000	99.608457
2941.000000	99.606252
2940.000000	99.603950
2939.000000	99.601665
2938.000000	99.598694
2937.000000	99.593267
2936.000000	99.584166
2935.000000	99.572969
2934.000000	99.563807
2933.000000	99.559892
2932.000000	99.560241
2931.000000	99.560572
2930.000000	99.557749
2929.000000	99.552893
2928.000000	99.549818
2927.000000	99.551024
2926.000000	99.555804
2925.000000	99.561397
2924.000000	99.565068
2923.000000	99.565390
2922.000000	99.562869
2921.000000	99.560105
2920.000000	99.560622
2919.000000	99.566663
2918.000000	99.577718
2917.000000	99.590912
2916.000000	99.602633
2915.000000	99.610135
2914.000000	99.612631
2913.000000	99.611878
2912.000000	99.611535
2911.000000	99.614851
2910.000000	99.622383
2909.000000	99.631925
2908.000000	99.640613
2907.000000	99.646954
2906.000000	99.651135
2905.000000	99.654210
2904.000000	99.657215
2903.000000	99.660471
2902.000000	99.663382
2901.000000	99.665343
2900.000000	99.666965
2899.000000	99.669978
2898.000000	99.675406
2897.000000	99.682292
2896.000000	99.688725
2895.000000	99.693746
2894.000000	99.697637
2893.000000	99.700814
2892.000000	99.703285
2891.000000	99.705049
2890.000000	99.706170
2889.000000	99.706458
2888.000000	99.705870
2887.000000	99.705417
2886.000000	99.706879
2885.000000	99.711221
2884.000000	99.717728
2883.000000	99.724565
2882.000000	99.729514
2881.000000	99.730618
2880.000000	99.727705
2879.000000	99.723816
2878.000000	99.723294
2877.000000	99.727034
2876.000000	99.730903
2875.000000	99.730365
2874.000000	99.725500
2873.000000	99.719771
2872.000000	99.714747
2871.000000	99.708658
2870.000000	99.700594
2869.000000	99.693339
2868.000000	99.690343
2867.000000	99.691465
2866.000000	99.693496
2865.000000	99.694068
2864.000000	99.693260
2863.000000	99.691628
2862.000000	99.688584
2861.000000	99.683444
2860.000000	99.676868
2859.000000	99.670220
2858.000000	99.663973
2857.000000	99.657701
2856.000000	99.651736
2855.000000	99.647975
2854.000000	99.648395
2853.000000	99.652925
2852.000000	99.659362
2851.000000	99.665544
2850.000000	99.671056
2849.000000	99.676474
2848.000000	99.681959
2847.000000	99.687586
2846.000000	99.694212
2845.000000	99.702324
2844.000000	99.710131
2843.000000	99.714663
2842.000000	99.715542
2841.000000	99.716223
2840.000000	99.720373
2839.000000	99.727768
2838.000000	99.734803
2837.000000	99.738532
2836.000000	99.739107
2835.000000	99.738719
2834.000000	99.739345
2833.000000	99.741432
2832.000000	99.743864
2831.000000	99.745057
2830.000000	99.744619
2829.000000	99.743949
2828.000000	99.744759
2827.000000	99.747222
2826.000000	99.750242
2825.000000	99.753271
2824.000000	99.756881
2823.000000	99.761423
2822.000000	99.765910
2821.000000	99.768614
2820.000000	99.768445
2819.000000	99.765764
2818.000000	99.762410
2817.000000	99.760759
2816.000000	99.761968
2815.000000	99.764922
2814.000000	99.767327
2813.000000	99.767950
2812.000000	99.767412
2811.000000	99.766955
2810.000000	99.767105
2809.000000	99.767681
2808.000000	99.768518
2807.000000	99.769735
2806.000000	99.771473
2805.000000	99.773650
2804.000000	99.775913
2803.000000	99.777677
2802.000000	99.778345
2801.000000	99.777690
2800.000000	99.776132
2799.000000	99.774615
2798.000000	99.774017
2797.000000	99.774701
2796.000000	99.776403
2795.000000	99.778469
2794.000000	99.780275
2793.000000	99.781519
2792.000000	99.782188
2791.000000	99.782372
2790.000000	99.782240
2789.000000	99.782061
2788.000000	99.782039
2787.000000	99.782141
2786.000000	99.782253
2785.000000	99.782483
2784.000000	99.783091
2783.000000	99.784111
2782.000000	99.785277
2781.000000	99.786386
2780.000000	99.787489
2779.000000	99.788580
2778.000000	99.789338
2777.000000	99.789426
2776.000000	99.788913
2775.000000	99.788227
2774.000000	99.787712
2773.000000	99.787430
2772.000000	99.787377
2771.000000	99.787590
2770.000000	99.788044
2769.000000	99.788679
2768.000000	99.789556
2767.000000	99.790746
2766.000000	99.792058
2765.000000	99.793147
2764.000000	99.793908
2763.000000	99.794516
2762.000000	99.795018
2761.000000	99.795183
2760.000000	99.794898
2759.000000	99.794558
2758.000000	99.794761
2757.000000	99.795658
2756.000000	99.796854
2755.000000	99.797818
2754.000000	99.798401
2753.000000	99.798804
2752.000000	99.799249
2751.000000	99.799805
2750.000000	99.800449
2749.000000	99.801126
2748.000000	99.801740
2747.000000	99.802194
2746.000000	99.802493
2745.000000	99.802767
2744.000000	99.803145
2743.000000	99.803629
2742.000000	99.804138
2741.000000	99.804617
2740.000000	99.805081
2739.000000	99.805549
2738.000000	99.805973
2737.000000	99.806276
2736.000000	99.806442
2735.000000	99.806535
2734.000000	99.806658
2733.000000	99.806900
2732.000000	99.807285
2731.000000	99.807763
2730.000000	99.808229
2729.000000	99.808611
2728.000000	99.808910
2727.000000	99.809168
2726.000000	99.809410
2725.000000	99.809609
2724.000000	99.809725
2723.000000	99.809756
2722.000000	99.809773
2721.000000	99.809878
2720.000000	99.810119
2719.000000	99.810459
2718.000000	99.810793
2717.000000	99.811034
2716.000000	99.811164
2715.000000	99.811239
2714.000000	99.811337
2713.000000	99.811487
2712.000000	99.811649
2711.000000	99.811754
2710.000000	99.811786
2709.000000	99.811802
2708.000000	99.811887
2707.000000	99.812082
2706.000000	99.812349
2705.000000	99.812587
2704.000000	99.812703
2703.000000	99.812680
2702.000000	99.812619
2701.000000	99.812695
2700.000000	99.812971
2699.000000	99.813228
2698.000000	99.813151
2697.000000	99.812665
2696.000000	99.811980
2695.000000	99.811320
2694.000000	99.810727
2693.000000	99.810230
2692.000000	99.810022
2691.000000	99.810291
2690.000000	99.810911
2689.000000	99.811482
2688.000000	99.811707
2687.000000	99.811606
2686.000000	99.811438
2685.000000	99.811507
2684.000000	99.811964
2683.000000	99.812708
2682.000000	99.813415
2681.000000	99.813727
2680.000000	99.813428
2679.000000	99.812528
2678.000000	99.811358
2677.000000	99.810596
2676.000000	99.810839
2675.000000	99.811938
2674.000000	99.812892
2673.000000	99.812804
2672.000000	99.811927
2671.000000	99.811421
2670.000000	99.812101
2669.000000	99.813684
2668.000000	99.815253
2667.000000	99.816069
2666.000000	99.815820
2665.000000	99.814429
2664.000000	99.811967
2663.000000	99.808713
2662.000000	99.805253
2661.000000	99.802561
2660.000000	99.801751
2659.000000	99.803392
2658.000000	99.806923
2657.000000	99.810910
2656.000000	99.814246
2655.000000	99.816910
2654.000000	99.819354
2653.000000	99.821332
2652.000000	99.821735
2651.000000	99.819822
2650.000000	99.816439
2649.000000	99.813683
2648.000000	99.812984
2647.000000	99.813864
2646.000000	99.814958
2645.000000	99.815946
2644.000000	99.817737
2643.000000	99.820757
2642.000000	99.824056
2641.000000	99.826483
2640.000000	99.827760
2639.000000	99.827694
2638.000000	99.825402
2637.000000	99.820525
2636.000000	99.814647
2635.000000	99.810209
2634.000000	99.808080
2633.000000	99.807349
2632.000000	99.807201
2631.000000	99.807803
2630.000000	99.809139
2629.000000	99.810319
2628.000000	99.810610
2627.000000	99.810214
2626.000000	99.809537
2625.000000	99.808555
2624.000000	99.807463
2623.000000	99.807117
2622.000000	99.808110
2621.000000	99.809884
2620.000000	99.811294
2619.000000	99.811690
2618.000000	99.811064
2617.000000	99.809718
2616.000000	99.808404
2615.000000	99.808358
2614.000000	99.810453
2613.000000	99.814330
2612.000000	99.818510
2611.000000	99.821410
2610.000000	99.822226
2609.000000	99.821240
2608.000000	99.819789
2607.000000	99.819480
2606.000000	99.820804
2605.000000	99.822672
2604.000000	99.823629
2603.000000	99.823363
2602.000000	99.822667
2601.000000	99.822235
2600.000000	99.822020
2599.000000	99.821699
2598.000000	99.821188
2597.000000	99.820596
2596.000000	99.820045
2595.000000	99.819723
2594.000000	99.819856
2593.000000	99.820496
2592.000000	99.821454
2591.000000	99.822446
2590.000000	99.823213
2589.000000	99.823548
2588.000000	99.823406
2587.000000	99.823070
2586.000000	99.823020
2585.000000	99.823504
2584.000000	99.824330
2583.000000	99.825087
2582.000000	99.825522
2581.000000	99.825640
2580.000000	99.825548
2579.000000	99.825340
2578.000000	99.825102
2577.000000	99.824910
2576.000000	99.824770
2575.000000	99.824626
2574.000000	99.824469
2573.000000	99.824400
2572.000000	99.824531
2571.000000	99.824870
2570.000000	99.825333
2569.000000	99.825820
2568.000000	99.826218
2567.000000	99.826372
2566.000000	99.826227
2565.000000	99.825960
2564.000000	99.825869
2563.000000	99.826071
2562.000000	99.826392
2561.000000	99.826599
2560.000000	99.826628
2559.000000	99.826569
2558.000000	99.826520
2557.000000	99.826552
2556.000000	99.826769
2555.000000	99.827261
2554.000000	99.827941
2553.000000	99.828496
2552.000000	99.828665
2551.000000	99.828478
2550.000000	99.828199
2549.000000	99.828013
2548.000000	99.827915
2547.000000	99.827850
2546.000000	99.827808
2545.000000	99.827783
2544.000000	99.827727
2543.000000	99.827623
2542.000000	99.827546
2541.000000	99.827620
2540.000000	99.827922
2539.000000	99.828423
2538.000000	99.829011
2537.000000	99.829574
2536.000000	99.830059
2535.000000	99.830443
2534.000000	99.830688
2533.000000	99.830780
2532.000000	99.830802
2531.000000	99.830897
2530.000000	99.831133
2529.000000	99.831425
2528.000000	99.831627
2527.000000	99.831683
2526.000000	99.831677
2525.000000	99.831773
2524.000000	99.832078
2523.000000	99.832576
2522.000000	99.833137
2521.000000	99.833596
2520.000000	99.833884
2519.000000	99.834050
2518.000000	99.834181
2517.000000	99.834318
2516.000000	99.834467
2515.000000	99.834654
2514.000000	99.834908
2513.000000	99.835217
2512.000000	99.835531
2511.000000	99.835840
2510.000000	99.836194
2509.000000	99.836628
2508.000000	99.837115
2507.000000	99.837585
2506.000000	99.837974
2505.000000	99.838275
2504.000000	99.838532
2503.000000	99.838808
2502.000000	99.839119
2501.000000	99.839445
2500.000000	99.839762
2499.000000	99.840063
2498.000000	99.840356
2497.000000	99.840650
2496.000000	99.840951
2495.000000	99.841262
2494.000000	99.841584
2493.000000	99.841913
2492.000000	99.842245
2491.000000	99.842576
2490.000000	99.842903
2489.000000	99.843224
2488.000000	99.843555
2487.000000	99.843942
2486.000000	99.844430
2485.000000	99.844992
2484.000000	99.845502
2483.000000	99.845862
2482.000000	99.846084
2481.000000	99.846283
2480.000000	99.846548
2479.000000	99.846852
2478.000000	99.847126
2477.000000	99.847347
2476.000000	99.847552
2475.000000	99.847798
2474.000000	99.848116
2473.000000	99.848503
2472.000000	99.848925
2471.000000	99.849338
2470.000000	99.849701
2469.000000	99.849999
2468.000000	99.850252
2467.000000	99.850504
2466.000000	99.850792
2465.000000	99.851134
2464.000000	99.851521
2463.000000	99.851905
2462.000000	99.852216
2461.000000	99.852418
2460.000000	99.852557
2459.000000	99.852759
2458.000000	99.853117
2457.000000	99.853616
2456.000000	99.854169
2455.000000	99.854698
2454.000000	99.855165
2453.000000	99.855560
2452.000000	99.855896
2451.000000	99.856217
2450.000000	99.856566
2449.000000	99.856932
2448.000000	99.857266
2447.000000	99.857543
2446.000000	99.857782
2445.000000	99.858021
2444.000000	99.858279
2443.000000	99.858558
2442.000000	99.858850
2441.000000	99.859151
2440.000000	99.859455
2439.000000	99.859761
2438.000000	99.860066
2437.000000	99.860371
2436.000000	99.860678
2435.000000	99.860989
2434.000000	99.861305
2433.000000	99.861624
2432.000000	99.861942
2431.000000	99.862259
2430.000000	99.862573
2429.000000	99.862883
2428.000000	99.863194
2427.000000	99.863512
2426.000000	99.863843
2425.000000	99.864182
2424.000000	99.864518
2423.000000	99.864839
2422.000000	99.865138
2421.000000	99.865421
2420.000000	99.865695
2419.000000	99.865972
2418.000000	99.866257
2417.000000	99.866549
2416.000000	99.866841
2415.000000	99.867126
2414.000000	99.867400
2413.000000	99.867666
2412.000000	99.867928
2411.000000	99.868191
2410.000000	99.868456
2409.000000	99.868726
2408.000000	99.869002
2407.000000	99.869281
2406.000000	99.869558
2405.000000	99.869832
2404.000000	99.870101
2403.000000	99.870367
2402.000000	99.870634
2401.000000	99.870906
2400.000000	99.871183
2399.000000	99.871463
2398.000000	99.871740
2397.000000	99.872007
2396.000000	99.872265
2395.000000	99.872514
2394.000000	99.872757
2393.000000	99.872989
2392.000000	99.873210
2391.000000	99.873421
2390.000000	99.873625
2389.000000	99.873827
2388.000000	99.874028
2387.000000	99.874227
2386.000000	99.874421
2385.000000	99.874604
2384.000000	99.874766
2383.000000	99.874900
2382.000000	99.875004
2381.000000	99.875082
2380.000000	99.875147
2379.000000	99.875209
2378.000000	99.875277
2377.000000	99.875352
2376.000000	99.875431
2375.000000	99.875500
2374.000000	99.875551
2373.000000	99.875587
2372.000000	99.875615
2371.000000	99.875635
2370.000000	99.875637
2369.000000	99.875620
2368.000000	99.875606
2367.000000	99.875624
2366.000000	99.875677
2365.000000	99.875738
2364.000000	99.875776
2363.000000	99.875798
2362.000000	99.875832
2361.000000	99.875889
2360.000000	99.875951
2359.000000	99.875958
2358.000000	99.875848
2357.000000	99.875639
2356.000000	99.875444
2355.000000	99.875408
2354.000000	99.875536
2353.000000	99.875682
2352.000000	99.875666
2351.000000	99.875478
2350.000000	99.875344
2349.000000	99.875470
2348.000000	99.875906
2347.000000	99.876390
2346.000000	99.876487
2345.000000	99.876014
2344.000000	99.875113
2343.000000	99.874212
2342.000000	99.873309
2341.000000	99.872277
2340.000000	99.871426
2339.000000	99.871434
2338.000000	99.872585
2337.000000	99.874197
2336.000000	99.875323
2335.000000	99.875618
2334.000000	99.875525
2333.000000	99.875412
2332.000000	99.875423
2331.000000	99.875342
2330.000000	99.875355
2329.000000	99.875295
2328.000000	99.875324
2327.000000	99.875453
2326.000000	99.875854
2325.000000	99.876355
2324.000000	99.876590
2323.000000	99.876620
2322.000000	99.876726
2321.000000	99.877080
2320.000000	99.877410
2319.000000	99.877247
2318.000000	99.876427
2317.000000	99.874761
2316.000000	99.872566
2315.000000	99.870245
2314.000000	99.868712
2313.000000	99.868207
2312.000000	99.868814
2311.000000	99.870019
2310.000000	99.871657
2309.000000	99.873223
2308.000000	99.874442
2307.000000	99.875030
2306.000000	99.875248
2305.000000	99.875265
2304.000000	99.875260
2303.000000	99.875154
2302.000000	99.875066
2301.000000	99.874963
2300.000000	99.874884
2299.000000	99.874708
2298.000000	99.874601
2297.000000	99.874766
2296.000000	99.875442
2295.000000	99.876368
2294.000000	99.876971
2293.000000	99.876749
2292.000000	99.875909
2291.000000	99.875173
2290.000000	99.875042
2289.000000	99.875351
2288.000000	99.875561
2287.000000	99.875308
2286.000000	99.874605
2285.000000	99.873775
2284.000000	99.873209
2283.000000	99.873080
2282.000000	99.873161
2281.000000	99.873079
2280.000000	99.872758
2279.000000	99.872506
2278.000000	99.872578
2277.000000	99.872864
2276.000000	99.873052
2275.000000	99.873004
2274.000000	99.872844
2273.000000	99.872718
2272.000000	99.872649
2271.000000	99.872588
2270.000000	99.872474
2269.000000	99.872222
2268.000000	99.871781
2267.000000	99.871271
2266.000000	99.870977
2265.000000	99.871042
2264.000000	99.871294
2263.000000	99.871412
2262.000000	99.871282
2261.000000	99.871046
2260.000000	99.870882
2259.000000	99.870856
2258.000000	99.870952
2257.000000	99.871158
2256.000000	99.871463
2255.000000	99.871825
2254.000000	99.872150
2253.000000	99.872284
2252.000000	99.872097
2251.000000	99.871584
2250.000000	99.870911
2249.000000	99.870311
2248.000000	99.869973
2247.000000	99.869989
2246.000000	99.870318
2245.000000	99.870745
2244.000000	99.870985
2243.000000	99.870890
2242.000000	99.870532
2241.000000	99.870056
2240.000000	99.869552
2239.000000	99.869106
2238.000000	99.868882
2237.000000	99.869020
2236.000000	99.869504
2235.000000	99.870178
2234.000000	99.870844
2233.000000	99.871347
2232.000000	99.871626
2231.000000	99.871775
2230.000000	99.871951
2229.000000	99.872178
2228.000000	99.872339
2227.000000	99.872387
2226.000000	99.872439
2225.000000	99.872552
2224.000000	99.872565
2223.000000	99.872304
2222.000000	99.871894
2221.000000	99.871715
2220.000000	99.871987
2219.000000	99.872559
2218.000000	99.873060
2217.000000	99.873313
2216.000000	99.873453
2215.000000	99.873695
2214.000000	99.874074
2213.000000	99.874436
2212.000000	99.874655
2211.000000	99.874778
2210.000000	99.874942
2209.000000	99.875181
2208.000000	99.875417
2207.000000	99.875640
2206.000000	99.875985
2205.000000	99.876549
2204.000000	99.877261
2203.000000	99.877958
2202.000000	99.878525
2201.000000	99.878883
2200.000000	99.878945
2199.000000	99.878731
2198.000000	99.878486
2197.000000	99.878501
2196.000000	99.878833
2195.000000	99.879323
2194.000000	99.879864
2193.000000	99.880463
2192.000000	99.881014
2191.000000	99.881286
2190.000000	99.881215
2189.000000	99.881019
2188.000000	99.880871
2187.000000	99.880712
2186.000000	99.880506
2185.000000	99.880433
2184.000000	99.880653
2183.000000	99.881123
2182.000000	99.881789
2181.000000	99.882678
2180.000000	99.883600
2179.000000	99.884112
2178.000000	99.884095
2177.000000	99.884090
2176.000000	99.884694
2175.000000	99.885825
2174.000000	99.886942
2173.000000	99.887788
2172.000000	99.888420
2171.000000	99.888672
2170.000000	99.888192
2169.000000	99.887123
2168.000000	99.886255
2167.000000	99.886191
2166.000000	99.886582
2165.000000	99.886482
2164.000000	99.885330
2163.000000	99.883465
2162.000000	99.881812
2161.000000	99.881105
2160.000000	99.881455
2159.000000	99.882522
2158.000000	99.883931
2157.000000	99.885452
2156.000000	99.886878
2155.000000	99.888004
2154.000000	99.888837
2153.000000	99.889630
2152.000000	99.890434
2151.000000	99.890815
2150.000000	99.890348
2149.000000	99.889323
2148.000000	99.888658
2147.000000	99.888983
2146.000000	99.890129
2145.000000	99.891556
2144.000000	99.892962
2143.000000	99.894290
2142.000000	99.895365
2141.000000	99.895932
2140.000000	99.896025
2139.000000	99.896005
2138.000000	99.896169
2137.000000	99.896516
2136.000000	99.896938
2135.000000	99.897441
2134.000000	99.898064
2133.000000	99.898732
2132.000000	99.899327
2131.000000	99.899864
2130.000000	99.900487
2129.000000	99.901307
2128.000000	99.902299
2127.000000	99.903311
2126.000000	99.904136
2125.000000	99.904629
2124.000000	99.904805
2123.000000	99.904857
2122.000000	99.905036
2121.000000	99.905485
2120.000000	99.906203
2119.000000	99.907126
2118.000000	99.908187
2117.000000	99.909268
2116.000000	99.910202
2115.000000	99.910883
2114.000000	99.911386
2113.000000	99.911950
2112.000000	99.912751
2111.000000	99.913708
2110.000000	99.914562
2109.000000	99.915138
2108.000000	99.915500
2107.000000	99.915855
2106.000000	99.916353
2105.000000	99.917015
2104.000000	99.917804
2103.000000	99.918690
2102.000000	99.919649
2101.000000	99.920625
2100.000000	99.921504
2099.000000	99.922155
2098.000000	99.922530
2097.000000	99.922765
2096.000000	99.923125
2095.000000	99.923756
2094.000000	99.924538
2093.000000	99.925312
2092.000000	99.926220
2091.000000	99.927604
2090.000000	99.929487
2089.000000	99.931358
2088.000000	99.932668
2087.000000	99.933386
2086.000000	99.933946
2085.000000	99.934784
2084.000000	99.935976
2083.000000	99.937171
2082.000000	99.937765
2081.000000	99.937434
2080.000000	99.936670
2079.000000	99.936500
2078.000000	99.937415
2077.000000	99.938841
2076.000000	99.939902
2075.000000	99.940338
2074.000000	99.940275
2073.000000	99.939548
2072.000000	99.938075
2071.000000	99.936689
2070.000000	99.936639
2069.000000	99.938050
2068.000000	99.939519
2067.000000	99.939667
2066.000000	99.938647
2065.000000	99.937757
2064.000000	99.937936
2063.000000	99.939078
2062.000000	99.940520
2061.000000	99.941723
2060.000000	99.942694
2059.000000	99.944024
2058.000000	99.946298
2057.000000	99.949188
2056.000000	99.951464
2055.000000	99.952269
2054.000000	99.951951
2053.000000	99.951317
2052.000000	99.950519
2051.000000	99.949276
2050.000000	99.947844
2049.000000	99.946924
2048.000000	99.946581
2047.000000	99.946045
2046.000000	99.944845
2045.000000	99.943528
2044.000000	99.942884
2043.000000	99.942822
2042.000000	99.942521
2041.000000	99.941554
2040.000000	99.940444
2039.000000	99.939994
2038.000000	99.940321
2037.000000	99.940718
2036.000000	99.940418
2035.000000	99.939410
2034.000000	99.938448
2033.000000	99.938310
2032.000000	99.939062
2031.000000	99.940035
2030.000000	99.940452
2029.000000	99.940121
2028.000000	99.939518
2027.000000	99.939151
2026.000000	99.938926
2025.000000	99.938326
2024.000000	99.937257
2023.000000	99.936378
2022.000000	99.936352
2021.000000	99.937033
2020.000000	99.937654
2019.000000	99.937719
2018.000000	99.937345
2017.000000	99.936776
2016.000000	99.936048
2015.000000	99.935237
2014.000000	99.934612
2013.000000	99.934299
2012.000000	99.934111
2011.000000	99.933841
2010.000000	99.933518
2009.000000	99.933253
2008.000000	99.932948
2007.000000	99.932379
2006.000000	99.931559
2005.000000	99.930856
2004.000000	99.930569
2003.000000	99.930574
2002.000000	99.930505
2001.000000	99.930230
2000.000000	99.929928
1999.000000	99.929776
1998.000000	99.929756
1997.000000	99.929713
1996.000000	99.929495
1995.000000	99.929116
1994.000000	99.928862
1993.000000	99.929072
1992.000000	99.929698
1991.000000	99.930272
1990.000000	99.930504
1989.000000	99.930605
1988.000000	99.930750
1987.000000	99.930638
1986.000000	99.929985
1985.000000	99.929098
1984.000000	99.928551
1983.000000	99.928438
1982.000000	99.928483
1981.000000	99.928718
1980.000000	99.929465
1979.000000	99.930662
1978.000000	99.931696
1977.000000	99.932125
1976.000000	99.932159
1975.000000	99.932261
1974.000000	99.932531
1973.000000	99.932685
1972.000000	99.932479
1971.000000	99.931942
1970.000000	99.931330
1969.000000	99.930981
1968.000000	99.931047
1967.000000	99.931295
1966.000000	99.931327
1965.000000	99.931107
1964.000000	99.931013
1963.000000	99.931309
1962.000000	99.931864
1961.000000	99.932463
1960.000000	99.933160
1959.000000	99.934067
1958.000000	99.934988
1957.000000	99.935560
1956.000000	99.935672
1955.000000	99.935458
1954.000000	99.934999
1953.000000	99.934356
1952.000000	99.933816
1951.000000	99.933690
1950.000000	99.933827
1949.000000	99.933640
1948.000000	99.932772
1947.000000	99.931575
1946.000000	99.930824
1945.000000	99.931036
1944.000000	99.932128
1943.000000	99.933441
1942.000000	99.934098
1941.000000	99.933649
1940.000000	99.932370
1939.000000	99.930973
1938.000000	99.929982
1937.000000	99.929480
1936.000000	99.929270
1935.000000	99.929037
1934.000000	99.928395
1933.000000	99.927120
1932.000000	99.925489
1931.000000	99.924149
1930.000000	99.923511
1929.000000	99.923343
1928.000000	99.923033
1927.000000	99.922216
1926.000000	99.921041
1925.000000	99.920057
1924.000000	99.919854
1923.000000	99.920608
1922.000000	99.921686
1921.000000	99.921982
1920.000000	99.920849
1919.000000	99.918513
1918.000000	99.915799
1917.000000	99.913402
1916.000000	99.911338
1915.000000	99.909328
1914.000000	99.907308
1913.000000	99.905476
1912.000000	99.904102
1911.000000	99.903252
1910.000000	99.902607
1909.000000	99.901528
1908.000000	99.899479
1907.000000	99.896459
1906.000000	99.892959
1905.000000	99.889697
1904.000000	99.887262
1903.000000	99.885881
1902.000000	99.885293
1901.000000	99.884739
1900.000000	99.883417
1899.000000	99.881120
1898.000000	99.878288
1897.000000	99.875553
1896.000000	99.873315
1895.000000	99.871754
1894.000000	99.870911
1893.000000	99.870364
1892.000000	99.869016
1891.000000	99.865685
1890.000000	99.860471
1889.000000	99.855408
1888.000000	99.852663
1887.000000	99.852338
1886.000000	99.852684
1885.000000	99.852016
1884.000000	99.850368
1883.000000	99.849280
1882.000000	99.849996
1881.000000	99.851941
1880.000000	99.853024
1879.000000	99.851471
1878.000000	99.847440
1877.000000	99.842992
1876.000000	99.840262
1875.000000	99.839517
1874.000000	99.839363
1873.000000	99.838673
1872.000000	99.837619
1871.000000	99.836692
1870.000000	99.835778
1869.000000	99.835101
1868.000000	99.835997
1867.000000	99.839107
1866.000000	99.842863
1865.000000	99.845085
1864.000000	99.845710
1863.000000	99.847151
1862.000000	99.851534
1861.000000	99.858170
1860.000000	99.864298
1859.000000	99.867902
1858.000000	99.868891
1857.000000	99.868246
1856.000000	99.867363
1855.000000	99.867834
1854.000000	99.870482
1853.000000	99.874321
1852.000000	99.877358
1851.000000	99.878899
1850.000000	99.879937
1849.000000	99.881528
1848.000000	99.883668
1847.000000	99.886001
1846.000000	99.888769
1845.000000	99.892425
1844.000000	99.896574
1843.000000	99.899870
1842.000000	99.901639
1841.000000	99.902702
1840.000000	99.904172
1839.000000	99.906252
1838.000000	99.908091
1837.000000	99.908635
1836.000000	99.907557
1835.000000	99.905596
1834.000000	99.903973
1833.000000	99.903491
1832.000000	99.904147
1831.000000	99.905358
1830.000000	99.906519
1829.000000	99.907622
1828.000000	99.909038
1827.000000	99.910712
1826.000000	99.911766
1825.000000	99.911382
1824.000000	99.910051
1823.000000	99.909130
1822.000000	99.909311
1821.000000	99.910287
1820.000000	99.911626
1819.000000	99.913234
1818.000000	99.914864
1817.000000	99.915837
1816.000000	99.915737
1815.000000	99.915102
1814.000000	99.914794
1813.000000	99.914869
1812.000000	99.914711
1811.000000	99.914127
1810.000000	99.913848
1809.000000	99.914622
1808.000000	99.916181
1807.000000	99.917429
1806.000000	99.917539
1805.000000	99.916625
1804.000000	99.915513
1803.000000	99.915001
1802.000000	99.915273
1801.000000	99.915929
1800.000000	99.916523
1799.000000	99.916960
1798.000000	99.917375
1797.000000	99.917789
1796.000000	99.918107
1795.000000	99.918355
1794.000000	99.918664
1793.000000	99.918979
1792.000000	99.919051
1791.000000	99.918715
1790.000000	99.918152
1789.000000	99.917836
1788.000000	99.918227
1787.000000	99.919483
1786.000000	99.921367
1785.000000	99.923311
1784.000000	99.924718
1783.000000	99.925348
1782.000000	99.925288
1781.000000	99.924663
1780.000000	99.923901
1779.000000	99.923704
1778.000000	99.924483
1777.000000	99.925911
1776.000000	99.927261
1775.000000	99.928289
1774.000000	99.929494
1773.000000	99.931620
1772.000000	99.935002
1771.000000	99.938938
1770.000000	99.942120
1769.000000	99.943522
1768.000000	99.942639
1767.000000	99.940013
1766.000000	99.937339
1765.000000	99.936129
1764.000000	99.936746
1763.000000	99.938514
1762.000000	99.940402
1761.000000	99.941791
1760.000000	99.942935
1759.000000	99.944540
1758.000000	99.946844
1757.000000	99.948928
1756.000000	99.949625
1755.000000	99.949200
1754.000000	99.949093
1753.000000	99.949986
1752.000000	99.950941
1751.000000	99.950724
1750.000000	99.949578
1749.000000	99.948860
1748.000000	99.948882
1747.000000	99.948521
1746.000000	99.946796
1745.000000	99.944005
1744.000000	99.941428
1743.000000	99.940006
1742.000000	99.939717
1741.000000	99.940228
1740.000000	99.941360
1739.000000	99.942523
1738.000000	99.942723
1737.000000	99.941398
1736.000000	99.938290
1735.000000	99.933384
1734.000000	99.928790
1733.000000	99.926882
1732.000000	99.926919
1731.000000	99.927882
1730.000000	99.929264
1729.000000	99.929955
1728.000000	99.928775
1727.000000	99.925692
1726.000000	99.921947
1725.000000	99.919272
1724.000000	99.918702
1723.000000	99.919199
1722.000000	99.918424
1721.000000	99.915015
1720.000000	99.909225
1719.000000	99.901979
1718.000000	99.894527
1717.000000	99.888272
1716.000000	99.883570
1715.000000	99.880209
1714.000000	99.877931
1713.000000	99.876036
1712.000000	99.873781
1711.000000	99.870938
1710.000000	99.867389
1709.000000	99.862586
1708.000000	99.856061
1707.000000	99.848313
1706.000000	99.840955
1705.000000	99.835806
1704.000000	99.833137
1703.000000	99.831869
1702.000000	99.830232
1701.000000	99.825605
1700.000000	99.817343
1699.000000	99.808544
1698.000000	99.801929
1697.000000	99.797839
1696.000000	99.794879
1695.000000	99.790908
1694.000000	99.785016
1693.000000	99.778316
1692.000000	99.772097
1691.000000	99.766472
1690.000000	99.760541
1689.000000	99.753211
1688.000000	99.744316
1687.000000	99.734783
1686.000000	99.725341
1685.000000	99.716451
1684.000000	99.709713
1683.000000	99.705436
1682.000000	99.701291
1681.000000	99.696344
1680.000000	99.690898
1679.000000	99.685274
1678.000000	99.679534
1677.000000	99.673022
1676.000000	99.664720
1675.000000	99.654985
1674.000000	99.645636
1673.000000	99.637988
1672.000000	99.632897
1671.000000	99.630613
1670.000000	99.629730
1669.000000	99.626904
1668.000000	99.619910
1667.000000	99.610050
1666.000000	99.599873
1665.000000	99.590610
1664.000000	99.582398
1663.000000	99.575676
1662.000000	99.571136
1661.000000	99.568125
1660.000000	99.565835
1659.000000	99.564324
1658.000000	99.563411
1657.000000	99.562573
1656.000000	99.561598
1655.000000	99.559243
1654.000000	99.551385
1653.000000	99.537700
1652.000000	99.524602
1651.000000	99.515004
1650.000000	99.509460
1649.000000	99.506402
1648.000000	99.502501
1647.000000	99.497309
1646.000000	99.494626
1645.000000	99.495527
1644.000000	99.497261
1643.000000	99.497755
1642.000000	99.496795
1641.000000	99.495459
1640.000000	99.495389
1639.000000	99.497036
1638.000000	99.498418
1637.000000	99.496800
1636.000000	99.493384
1635.000000	99.493773
1634.000000	99.498194
1633.000000	99.502638
1632.000000	99.505781
1631.000000	99.508566
1630.000000	99.511876
1629.000000	99.515766
1628.000000	99.520207
1627.000000	99.525555
1626.000000	99.531489
1625.000000	99.536518
1624.000000	99.539986
1623.000000	99.543902
1622.000000	99.550224
1621.000000	99.557162
1620.000000	99.561723
1619.000000	99.562965
1618.000000	99.563083
1617.000000	99.567523
1616.000000	99.579896
1615.000000	99.596377
1614.000000	99.611311
1613.000000	99.622798
1612.000000	99.631377
1611.000000	99.638657
1610.000000	99.646607
1609.000000	99.656068
1608.000000	99.666269
1607.000000	99.675924
1606.000000	99.684385
1605.000000	99.691578
1604.000000	99.697826
1603.000000	99.703798
1602.000000	99.710328
1601.000000	99.717909
1600.000000	99.726060
1599.000000	99.733355
1598.000000	99.738462
1597.000000	99.741593
1596.000000	99.744709
1595.000000	99.749723
1594.000000	99.756399
1593.000000	99.762585
1592.000000	99.766754
1591.000000	99.769550
1590.000000	99.772612
1589.000000	99.776297
1588.000000	99.779199
1587.000000	99.779862
1586.000000	99.778428
1585.000000	99.776545
1584.000000	99.775933
1583.000000	99.777380
1582.000000	99.780394
1581.000000	99.784081
1580.000000	99.788336
1579.000000	99.793620
1578.000000	99.799193
1577.000000	99.802709
1576.000000	99.803073
1575.000000	99.802410
1574.000000	99.802820
1573.000000	99.804284
1572.000000	99.805776
1571.000000	99.806864
1570.000000	99.809181
1569.000000	99.814608
1568.000000	99.821637
1567.000000	99.827640
1566.000000	99.831535
1565.000000	99.833194
1564.000000	99.832862
1563.000000	99.831664
1562.000000	99.831023
1561.000000	99.831266
1560.000000	99.831268
1559.000000	99.831842
1558.000000	99.833502
1557.000000	99.833446
1556.000000	99.833357
1555.000000	99.835347
1554.000000	99.838380
1553.000000	99.840444
1552.000000	99.841639
1551.000000	99.843394
1550.000000	99.846128
1549.000000	99.849077
1548.000000	99.851557
1547.000000	99.853649
1546.000000	99.854807
1545.000000	99.853932
1544.000000	99.851608
1543.000000	99.850408
1542.000000	99.851653
1541.000000	99.853429
1540.000000	99.853023
1539.000000	99.851153
1538.000000	99.849599
1537.000000	99.848869
1536.000000	99.848576
1535.000000	99.847902
1534.000000	99.846944
1533.000000	99.847017
1532.000000	99.848122
1531.000000	99.848908
1530.000000	99.849093
1529.000000	99.849112
1528.000000	99.849034
1527.000000	99.848919
1526.000000	99.849355
1525.000000	99.850773
1524.000000	99.852831
1523.000000	99.854629
1522.000000	99.855833
1521.000000	99.857578
1520.000000	99.860007
1519.000000	99.862044
1518.000000	99.863419
1517.000000	99.864465
1516.000000	99.865849
1515.000000	99.867890
1514.000000	99.870530
1513.000000	99.873404
1512.000000	99.876157
1511.000000	99.879123
1510.000000	99.883143
1509.000000	99.887994
1508.000000	99.892055
1507.000000	99.894515
1506.000000	99.895752
1505.000000	99.894582
1504.000000	99.892813
1503.000000	99.894051
1502.000000	99.899488
1501.000000	99.906950
1500.000000	99.912354
1499.000000	99.913421
1498.000000	99.912107
1497.000000	99.912841
1496.000000	99.917339
1495.000000	99.922708
1494.000000	99.926400
1493.000000	99.928523
1492.000000	99.929747
1491.000000	99.930321
1490.000000	99.930775
1489.000000	99.931316
1488.000000	99.931163
1487.000000	99.930038
1486.000000	99.928566
1485.000000	99.926840
1484.000000	99.924591
1483.000000	99.922919
1482.000000	99.923623
1481.000000	99.926842
1480.000000	99.929886
1479.000000	99.929889
1478.000000	99.926191
1477.000000	99.920192
1476.000000	99.914084
1475.000000	99.908929
1474.000000	99.903951
1473.000000	99.897687
1472.000000	99.890111
1471.000000	99.882525
1470.000000	99.876403
1469.000000	99.872508
1468.000000	99.870157
1467.000000	99.867824
1466.000000	99.865080
1465.000000	99.863278
1464.000000	99.863616
1463.000000	99.865188
1462.000000	99.866610
1461.000000	99.867587
1460.000000	99.867988
1459.000000	99.867469
1458.000000	99.866472
1457.000000	99.866924
1456.000000	99.867826
1455.000000	99.866028
1454.000000	99.862708
1453.000000	99.860492
1452.000000	99.859653
1451.000000	99.858268
1450.000000	99.855032
1449.000000	99.851216
1448.000000	99.849016
1447.000000	99.848131
1446.000000	99.846016
1445.000000	99.841351
1444.000000	99.835699
1443.000000	99.831308
1442.000000	99.828944
1441.000000	99.828323
1440.000000	99.829523
1439.000000	99.832502
1438.000000	99.835236
1437.000000	99.834442
1436.000000	99.829551
1435.000000	99.823821
1434.000000	99.820109
1433.000000	99.818636
1432.000000	99.817922
1431.000000	99.817011
1430.000000	99.816964
1429.000000	99.819682
1428.000000	99.825087
1427.000000	99.830615
1426.000000	99.833596
1425.000000	99.833143
1424.000000	99.831011
1423.000000	99.829719
1422.000000	99.829592
1421.000000	99.829105
1420.000000	99.827495
1419.000000	99.826732
1418.000000	99.828656
1417.000000	99.832109
1416.000000	99.836016
1415.000000	99.840478
1414.000000	99.844932
1413.000000	99.847949
1412.000000	99.849028
1411.000000	99.849585
1410.000000	99.851483
1409.000000	99.855274
1408.000000	99.860341
1407.000000	99.866073
1406.000000	99.872346
1405.000000	99.878654
1404.000000	99.883866
1403.000000	99.887308
1402.000000	99.889648
1401.000000	99.891948
1400.000000	99.894356
1399.000000	99.896551
1398.000000	99.898916
1397.000000	99.902833
1396.000000	99.909600
1395.000000	99.918819
1394.000000	99.927775
1393.000000	99.933550
1392.000000	99.935877
1391.000000	99.936455
1390.000000	99.936994
1389.000000	99.938515
1388.000000	99.941579
1387.000000	99.946180
1386.000000	99.951177
1385.000000	99.954902
1384.000000	99.956341
1383.000000	99.955312
1382.000000	99.952336
1381.000000	99.948473
1380.000000	99.944633
1379.000000	99.941248
1378.000000	99.938360
1377.000000	99.935801
1376.000000	99.933512
1375.000000	99.931925
1374.000000	99.931753
1373.000000	99.933152
1372.000000	99.935907
1371.000000	99.940093
1370.000000	99.945187
1369.000000	99.948956
1368.000000	99.949350
1367.000000	99.947321
1366.000000	99.946073
1365.000000	99.947230
1364.000000	99.948946
1363.000000	99.948380
1362.000000	99.945443
1361.000000	99.942607
1360.000000	99.941591
1359.000000	99.942345
1358.000000	99.944455
1357.000000	99.947669
1356.000000	99.951068
1355.000000	99.952923
1354.000000	99.952206
1353.000000	99.949896
1352.000000	99.948209
1351.000000	99.948566
1350.000000	99.950580
1349.000000	99.952370
1348.000000	99.952366
1347.000000	99.950777
1346.000000	99.949159
1345.000000	99.948411
1344.000000	99.947803
1343.000000	99.946426
1342.000000	99.944906
1341.000000	99.944834
1340.000000	99.946753
1339.000000	99.949528
1338.000000	99.951908
1337.000000	99.953654
1336.000000	99.954651
1335.000000	99.954240
1334.000000	99.952283
1333.000000	99.949933
1332.000000	99.948382
1331.000000	99.947298
1330.000000	99.945487
1329.000000	99.942977
1328.000000	99.941625
1327.000000	99.943294
1326.000000	99.947809
1325.000000	99.952869
1324.000000	99.956097
1323.000000	99.956823
1322.000000	99.955990
1321.000000	99.954727
1320.000000	99.953252
1319.000000	99.951322
1318.000000	99.949311
1317.000000	99.948255
1316.000000	99.948653
1315.000000	99.949758
1314.000000	99.950438
1313.000000	99.950540
1312.000000	99.950915
1311.000000	99.952052
1310.000000	99.953290
1309.000000	99.953536
1308.000000	99.952307
1307.000000	99.949857
1306.000000	99.946948
1305.000000	99.944834
1304.000000	99.944922
1303.000000	99.947392
1302.000000	99.950322
1301.000000	99.951156
1300.000000	99.949278
1299.000000	99.946615
1298.000000	99.945662
1297.000000	99.947428
1296.000000	99.951189
1295.000000	99.955191
1294.000000	99.957276
1293.000000	99.955975
1292.000000	99.951879
1291.000000	99.947497
1290.000000	99.944974
1289.000000	99.944178
1288.000000	99.943457
1287.000000	99.941601
1286.000000	99.938509
1285.000000	99.934822
1284.000000	99.931988
1283.000000	99.932013
1282.000000	99.935651
1281.000000	99.940765
1280.000000	99.943610
1279.000000	99.942105
1278.000000	99.937305
1277.000000	99.931722
1276.000000	99.927107
1275.000000	99.924230
1274.000000	99.923807
1273.000000	99.926323
1272.000000	99.930633
1271.000000	99.933592
1270.000000	99.932273
1269.000000	99.926805
1268.000000	99.920183
1267.000000	99.914847
1266.000000	99.910376
1265.000000	99.905629
1264.000000	99.901962
1263.000000	99.901898
1262.000000	99.904655
1261.000000	99.905743
1260.000000	99.902257
1259.000000	99.896473
1258.000000	99.892350
1257.000000	99.889981
1256.000000	99.885531
1255.000000	99.875815
1254.000000	99.861213
1253.000000	99.844586
1252.000000	99.828996
1251.000000	99.816287
1250.000000	99.806016
1249.000000	99.795190
1248.000000	99.780206
1247.000000	99.759901
1246.000000	99.736782
1245.000000	99.715295
1244.000000	99.698818
1243.000000	99.687542
1242.000000	99.678671
1241.000000	99.668996
1240.000000	99.657422
1239.000000	99.644625
1238.000000	99.630684
1237.000000	99.614478
1236.000000	99.595718
1235.000000	99.576225
1234.000000	99.558451
1233.000000	99.543536
1232.000000	99.530812
1231.000000	99.517693
1230.000000	99.500013
1229.000000	99.474689
1228.000000	99.442953
1227.000000	99.409274
1226.000000	99.376150
1225.000000	99.341625
1224.000000	99.302846
1223.000000	99.259490
1222.000000	99.212053
1221.000000	99.159309
1220.000000	99.100196
1219.000000	99.036699
1218.000000	98.971997
1217.000000	98.906587
1216.000000	98.838753
1215.000000	98.768071
1214.000000	98.696012
1213.000000	98.623360
1212.000000	98.549036
1211.000000	98.471489
1210.000000	98.390190
1209.000000	98.306258
1208.000000	98.222241
1207.000000	98.140201
1206.000000	98.059709
1205.000000	97.979500
1204.000000	97.900954
1203.000000	97.826729
1202.000000	97.755218
1201.000000	97.679904
1200.000000	97.596347
1199.000000	97.507499
1198.000000	97.420337
1197.000000	97.339209
1196.000000	97.263628
1195.000000	97.189831
1194.000000	97.112951
1193.000000	97.030126
1192.000000	96.943002
1191.000000	96.855568
1190.000000	96.769273
1189.000000	96.682674
1188.000000	96.595499
1187.000000	96.509091
1186.000000	96.422429
1185.000000	96.332100
1184.000000	96.237440
1183.000000	96.141753
1182.000000	96.047356
1181.000000	95.953414
1180.000000	95.859334
1179.000000	95.765237
1178.000000	95.667839
1177.000000	95.561716
1176.000000	95.447106
1175.000000	95.331145
1174.000000	95.218313
1173.000000	95.104637
1172.000000	94.984897
1171.000000	94.860892
1170.000000	94.738824
1169.000000	94.622467
1168.000000	94.512620
1167.000000	94.410208
1166.000000	94.317555
1165.000000	94.240343
1164.000000	94.189914
1163.000000	94.178312
1162.000000	94.207354
1161.000000	94.264807
1160.000000	94.331508
1159.000000	94.388572
1158.000000	94.419505
1157.000000	94.413672
1156.000000	94.371226
1155.000000	94.300993
1154.000000	94.211836
1153.000000	94.109212
1152.000000	93.999559
1151.000000	93.890915
1150.000000	93.786389
1149.000000	93.682708
1148.000000	93.577736
1147.000000	93.473944
1146.000000	93.372555
1145.000000	93.270604
1144.000000	93.166486
1143.000000	93.062485
1142.000000	92.959275
1141.000000	92.853840
1140.000000	92.745032
1139.000000	92.634801
1138.000000	92.521796
1137.000000	92.400794
1136.000000	92.271474
1135.000000	92.141212
1134.000000	92.016090
1133.000000	91.895013
1132.000000	91.774691
1131.000000	91.653384
1130.000000	91.527860
1129.000000	91.394490
1128.000000	91.255955
1127.000000	91.119621
1126.000000	90.987342
1125.000000	90.854662
1124.000000	90.721101
1123.000000	90.591327
1122.000000	90.463982
1121.000000	90.330440
1120.000000	90.188859
1119.000000	90.049164
1118.000000	89.919260
1117.000000	89.796201
1116.000000	89.675350
1115.000000	89.558000
1114.000000	89.444706
1113.000000	89.330652
1112.000000	89.213225
1111.000000	89.096088
1110.000000	88.982046
1109.000000	88.870199
1108.000000	88.762025
1107.000000	88.660575
1106.000000	88.562114
1105.000000	88.459132
1104.000000	88.352878
1103.000000	88.251204
1102.000000	88.153012
1101.000000	88.048251
1100.000000	87.935421
1099.000000	87.824880
1098.000000	87.721739
1097.000000	87.619479
1096.000000	87.514280
1095.000000	87.411191
1094.000000	87.311443
1093.000000	87.207855
1092.000000	87.098051
1091.000000	86.988829
1090.000000	86.882750
1089.000000	86.773947
1088.000000	86.661912
1087.000000	86.555710
1086.000000	86.459504
1085.000000	86.366988
1084.000000	86.274160
1083.000000	86.183894
1082.000000	86.094571
1081.000000	85.999302
1080.000000	85.900645
1079.000000	85.811030
1078.000000	85.733811
1077.000000	85.658308
1076.000000	85.577315
1075.000000	85.493457
1074.000000	85.404332
1073.000000	85.298425
1072.000000	85.171301
1071.000000	85.030015
1070.000000	84.876450
1069.000000	84.702029
1068.000000	84.504322
1067.000000	84.292944
1066.000000	84.073536
1065.000000	83.842468
1064.000000	83.603853
1063.000000	83.374420
1062.000000	83.163295
1061.000000	82.962894
1060.000000	82.766928
1059.000000	82.580392
1058.000000	82.404471
1057.000000	82.228835
1056.000000	82.047020
1055.000000	81.862966
1054.000000	81.674425
1053.000000	81.466560
1052.000000	81.231713
1051.000000	80.980035
1050.000000	80.721011
1049.000000	80.451203
1048.000000	80.169160
1047.000000	79.882915
1046.000000	79.594084
1045.000000	79.293029
1044.000000	78.976388
1043.000000	78.652713
1042.000000	78.327131
1041.000000	77.998726
1040.000000	77.676754
1039.000000	77.378402
1038.000000	77.104615
1037.000000	76.839070
1036.000000	76.576979
1035.000000	76.332905
1034.000000	76.113982
1033.000000	75.909453
1032.000000	75.715052
1031.000000	75.544000
1030.000000	75.403149
1029.000000	75.279811
1028.000000	75.162814
1027.000000	75.057059
1026.000000	74.967495
1025.000000	74.887506
1024.000000	74.811658
1023.000000	74.741855
1022.000000	74.674191
1021.000000	74.598542
1020.000000	74.516864
1019.000000	74.442443
1018.000000	74.376126
1017.000000	74.303578
1016.000000	74.220461
1015.000000	74.138817
1014.000000	74.063810
1013.000000	73.986454
1012.000000	73.904681
1011.000000	73.828979
1010.000000	73.761304
1009.000000	73.691077
1008.000000	73.618699
1007.000000	73.560449
1006.000000	73.522758
1005.000000	73.493461
1004.000000	73.465720
1003.000000	73.448907
1002.000000	73.448071
1001.000000	73.454084
1000.000000	73.462294
999.000000	73.480696
998.000000	73.511659
997.000000	73.545002
996.000000	73.576475
995.000000	73.614295
994.000000	73.660990
993.000000	73.707565
992.000000	73.751539
991.000000	73.801920
990.000000	73.860942
989.000000	73.920301
988.000000	73.980836
987.000000	74.056336
986.000000	74.152218
985.000000	74.259813
984.000000	74.376973
983.000000	74.514437
982.000000	74.675566
981.000000	74.849314
980.000000	75.030279
979.000000	75.227885
978.000000	75.449133
977.000000	75.689159
976.000000	75.944522
975.000000	76.219657
974.000000	76.514817
973.000000	76.822233
972.000000	77.137890
971.000000	77.463268
970.000000	77.794107
969.000000	78.122390
968.000000	78.450034
967.000000	78.785483
966.000000	79.127204
965.000000	79.466293
964.000000	79.803663
963.000000	80.146501
962.000000	80.488306
961.000000	80.811707
960.000000	81.112600
959.000000	81.403649
958.000000	81.692201
957.000000	81.972012
956.000000	82.238793
955.000000	82.496251
954.000000	82.743713
953.000000	82.974482
952.000000	83.189686
951.000000	83.397716
950.000000	83.596923
949.000000	83.775016
948.000000	83.929038
947.000000	84.070026
946.000000	84.204295
945.000000	84.325928
944.000000	84.432338
943.000000	84.531306
942.000000	84.627081
941.000000	84.714552
940.000000	84.793195
939.000000	84.872120
938.000000	84.954744
937.000000	85.032542
936.000000	85.101425
935.000000	85.171646
934.000000	85.253906
933.000000	85.346498
932.000000	85.442480
931.000000	85.538875
930.000000	85.633325
929.000000	85.722083
928.000000	85.806370
927.000000	85.891318
926.000000	85.975425
925.000000	86.051421
924.000000	86.120016
923.000000	86.190948
922.000000	86.266773
921.000000	86.337059
920.000000	86.392577
919.000000	86.434873
918.000000	86.469440
917.000000	86.500945
916.000000	86.537857
915.000000	86.589527
914.000000	86.655125
913.000000	86.727147
912.000000	86.808575
911.000000	86.913891
910.000000	87.050476
909.000000	87.212728
908.000000	87.397211
907.000000	87.608343
906.000000	87.844506
905.000000	88.093910
904.000000	88.351049
903.000000	88.624085
902.000000	88.918826
901.000000	89.226620
900.000000	89.534370
899.000000	89.836892
898.000000	90.133849
897.000000	90.423139
896.000000	90.702583
895.000000	90.971772
894.000000	91.229475
893.000000	91.475255
892.000000	91.713955
891.000000	91.950766
890.000000	92.181647
889.000000	92.397379
888.000000	92.597555
887.000000	92.791309
886.000000	92.983620
885.000000	93.170928
884.000000	93.351474
883.000000	93.528903
882.000000	93.703093
881.000000	93.868508
880.000000	94.025310
879.000000	94.181237
878.000000	94.338327
877.000000	94.489216
876.000000	94.632225
875.000000	94.778626
874.000000	94.937475
873.000000	95.103291
872.000000	95.267076
871.000000	95.430548
870.000000	95.600369
869.000000	95.774799
868.000000	95.945269
867.000000	96.107625
866.000000	96.264489
865.000000	96.418428
864.000000	96.568694
863.000000	96.713989
862.000000	96.854116
861.000000	96.989094
860.000000	97.119404
859.000000	97.246444
858.000000	97.370072
857.000000	97.485814
856.000000	97.586795
855.000000	97.669792
854.000000	97.739612
853.000000	97.807003
852.000000	97.880679
851.000000	97.960081
850.000000	98.036473
849.000000	98.101523
848.000000	98.152900
847.000000	98.191178
846.000000	98.215738
845.000000	98.227276
844.000000	98.230153
843.000000	98.226013
842.000000	98.207183
841.000000	98.163821
840.000000	98.097682
839.000000	98.021534
838.000000	97.942887
837.000000	97.855022
836.000000	97.748628
835.000000	97.628088
834.000000	97.511740
833.000000	97.417812
832.000000	97.352370
831.000000	97.308174
830.000000	97.273198
829.000000	97.243287
828.000000	97.227681
827.000000	97.238881
826.000000	97.277047
825.000000	97.329438
824.000000	97.384899
823.000000	97.441612
822.000000	97.499923
821.000000	97.555268
820.000000	97.599956
819.000000	97.626232
818.000000	97.627452
817.000000	97.601297
816.000000	97.551099
815.000000	97.478657
814.000000	97.376077
813.000000	97.229954
812.000000	97.032489
811.000000	96.781310
810.000000	96.468327
809.000000	96.078474
808.000000	95.604875
807.000000	95.059764
806.000000	94.466260
805.000000	93.845546
804.000000	93.217681
803.000000	92.608253
802.000000	92.046478
801.000000	91.560331
800.000000	91.176000
799.000000	90.912385
798.000000	90.770127
797.000000	90.733309
796.000000	90.783994
795.000000	90.905896
794.000000	91.075095
793.000000	91.262020
792.000000	91.446232
791.000000	91.618505
790.000000	91.767448
789.000000	91.876252
788.000000	91.934514
787.000000	91.941183
786.000000	91.892736
785.000000	91.780223
784.000000	91.603946
783.000000	91.383032
782.000000	91.146578
781.000000	90.923615
780.000000	90.743684
779.000000	90.633544
778.000000	90.604397
777.000000	90.650035
776.000000	90.761694
775.000000	90.934964
774.000000	91.158434
773.000000	91.406996
772.000000	91.653508
771.000000	91.881366
770.000000	92.083935
769.000000	92.260042
768.000000	92.413253
767.000000	92.548351
766.000000	92.664685
765.000000	92.757687
764.000000	92.827740
763.000000	92.881632
762.000000	92.925431
761.000000	92.963345
760.000000	93.003503
759.000000	93.055440
758.000000	93.119592
757.000000	93.187547
756.000000	93.254731
755.000000	93.324666
754.000000	93.399175
753.000000	93.473502
752.000000	93.544582
751.000000	93.617193
750.000000	93.699158
749.000000	93.795640
748.000000	93.908259
747.000000	94.032880
746.000000	94.158756
745.000000	94.278728
744.000000	94.400983
743.000000	94.541700
742.000000	94.704899
741.000000	94.878144
740.000000	95.048663
739.000000	95.213973
738.000000	95.375604
737.000000	95.533010
736.000000	95.686721
735.000000	95.838044
734.000000	95.981699
733.000000	96.106057
732.000000	96.203836
731.000000	96.277396
730.000000	96.333066
729.000000	96.376802
728.000000	96.415612
727.000000	96.455502
726.000000	96.496812
725.000000	96.538198
724.000000	96.584605
723.000000	96.643128
722.000000	96.711767
721.000000	96.782360
720.000000	96.855270
719.000000	96.939690
718.000000	97.036252
717.000000	97.130612
716.000000	97.208519
715.000000	97.268003
714.000000	97.313729
713.000000	97.348844
712.000000	97.376696
711.000000	97.401422
710.000000	97.421304
709.000000	97.429087
708.000000	97.423469
707.000000	97.411588
706.000000	97.394344
705.000000	97.358125
704.000000	97.288200
703.000000	97.181948
702.000000	97.039955
701.000000	96.850633
700.000000	96.594469
699.000000	96.264053
698.000000	95.879480
697.000000	95.491102
696.000000	95.168963
695.000000	94.976344
694.000000	94.939687
693.000000	95.039569
692.000000	95.228299
691.000000	95.455865
690.000000	95.685887
689.000000	95.898509
688.000000	96.086165
687.000000	96.246503
686.000000	96.378451
685.000000	96.486916
684.000000	96.586043
683.000000	96.687308
682.000000	96.784796
681.000000	96.863080
680.000000	96.921772
679.000000	96.980268
678.000000	97.052930
677.000000	97.132509
676.000000	97.205356
675.000000	97.272644
674.000000	97.343971
673.000000	97.416368
672.000000	97.473234
671.000000	97.504917
670.000000	97.523282
669.000000	97.562697
668.000000	97.659257
667.000000	97.793095
666.000000	97.904337
665.000000	97.974355
664.000000	98.020759
663.000000	98.066221
662.000000	98.122028
661.000000	98.183124
660.000000	98.238072
659.000000	98.279426
658.000000	98.304263
657.000000	98.314096
656.000000	98.316556
655.000000	98.320881
654.000000	98.325957
653.000000	98.318532
652.000000	98.291339
651.000000	98.259109
650.000000	98.246931
649.000000	98.264487
648.000000	98.300379
647.000000	98.337495
646.000000	98.369069
645.000000	98.403075
644.000000	98.454626
643.000000	98.531685
642.000000	98.624438
641.000000	98.713902
640.000000	98.791536
639.000000	98.862587
638.000000	98.931699
637.000000	98.994006
636.000000	99.041363
635.000000	99.070695
634.000000	99.086753
633.000000	99.102697
632.000000	99.136850
631.000000	99.200397
630.000000	99.286750
629.000000	99.380577
628.000000	99.474288
627.000000	99.564725
626.000000	99.639741
625.000000	99.686613
624.000000	99.713873
623.000000	99.748075
622.000000	99.806460
621.000000	99.882328
620.000000	99.956858
619.000000	100.011914
618.000000	100.035589
617.000000	100.032745
616.000000	100.027947
615.000000	100.043337
614.000000	100.070489
613.000000	100.075710
612.000000	100.033497
611.000000	99.947831
610.000000	99.849600
609.000000	99.779429
608.000000	99.762930
607.000000	99.781178
606.000000	99.771427
605.000000	99.693835
604.000000	99.593547
603.000000	99.559419
602.000000	99.617414
601.000000	99.701027
600.000000	99.733708
599.000000	99.702617
598.000000	99.641125
597.000000	99.577033
596.000000	99.525637
595.000000	99.502080
594.000000	99.505692
593.000000	99.513841
592.000000	99.518836
591.000000	99.546791
590.000000	99.611609
589.000000	99.676384
588.000000	99.690170
587.000000	99.639278
586.000000	99.549469
585.000000	99.464370
584.000000	99.439575
583.000000	99.522704
582.000000	99.696062
581.000000	99.872327
580.000000	99.985971
579.000000	100.055772
578.000000	100.133417
577.000000	100.224642
576.000000	100.296856
575.000000	100.329688
574.000000	100.324787
573.000000	100.294804
572.000000	100.272281
571.000000	100.296112
570.000000	100.350400
569.000000	100.365986
568.000000	100.320863
567.000000	100.275141
566.000000	100.268022
565.000000	100.250353
564.000000	100.174665
563.000000	100.075173
562.000000	100.000655
561.000000	99.932681
560.000000	99.843884
559.000000	99.766221
558.000000	99.721957
557.000000	99.659700
556.000000	99.547952
555.000000	99.463256
554.000000	99.490214
553.000000	99.594153
552.000000	99.683470
551.000000	99.737004
550.000000	99.793712
