PE IR       SUBTECH     SPECTRUM    ASCII       PEDS        4.00        
   -1
BH-2(1)55-56_1.asc
24/05/14
11:54:08.00
24/05/14
11:54:17.00
Administrator
?品 022 用? Administrator 日期 Tuesday, May 14 2024
550.000000
#HDR
-1
-1
#GR
cm-1
%T
1.0
0.0
4000.000000
-1.000000
3451
8
100.214322
89.223922
#DATA
4000.000000	100.131172
3999.000000	100.130569
3998.000000	100.129337
3997.000000	100.127127
3996.000000	100.124458
3995.000000	100.122318
3994.000000	100.121237
3993.000000	100.121043
3992.000000	100.121026
3991.000000	100.120553
3990.000000	100.119497
3989.000000	100.118138
3988.000000	100.116919
3987.000000	100.116234
3986.000000	100.116285
3985.000000	100.117018
3984.000000	100.118099
3983.000000	100.119011
3982.000000	100.119268
3981.000000	100.118620
3980.000000	100.117108
3979.000000	100.114964
3978.000000	100.112470
3977.000000	100.109932
3976.000000	100.107721
3975.000000	100.106221
3974.000000	100.105629
3973.000000	100.105801
3972.000000	100.106316
3971.000000	100.106759
3970.000000	100.106962
3969.000000	100.106991
3968.000000	100.106954
3967.000000	100.106805
3966.000000	100.106338
3965.000000	100.105376
3964.000000	100.104035
3963.000000	100.102791
3962.000000	100.102165
3961.000000	100.102281
3960.000000	100.102745
3959.000000	100.102927
3958.000000	100.102481
3957.000000	100.101543
3956.000000	100.100569
3955.000000	100.100000
3954.000000	100.100032
3953.000000	100.100615
3952.000000	100.101481
3951.000000	100.102181
3950.000000	100.102288
3949.000000	100.101679
3948.000000	100.100624
3947.000000	100.099555
3946.000000	100.098687
3945.000000	100.097983
3944.000000	100.097428
3943.000000	100.097178
3942.000000	100.097380
3941.000000	100.097905
3940.000000	100.098401
3939.000000	100.098619
3938.000000	100.098584
3937.000000	100.098473
3936.000000	100.098377
3935.000000	100.098248
3934.000000	100.098040
3933.000000	100.097845
3932.000000	100.097847
3931.000000	100.098157
3930.000000	100.098740
3929.000000	100.099484
3928.000000	100.100241
3927.000000	100.100792
3926.000000	100.100867
3925.000000	100.100318
3924.000000	100.099280
3923.000000	100.098166
3922.000000	100.097417
3921.000000	100.097218
3920.000000	100.097472
3919.000000	100.097896
3918.000000	100.098198
3917.000000	100.098272
3916.000000	100.098191
3915.000000	100.098096
3914.000000	100.098091
3913.000000	100.098203
3912.000000	100.098383
3911.000000	100.098551
3910.000000	100.098674
3909.000000	100.098793
3908.000000	100.098958
3907.000000	100.099150
3906.000000	100.099297
3905.000000	100.099368
3904.000000	100.099386
3903.000000	100.099373
3902.000000	100.099322
3901.000000	100.099220
3900.000000	100.099119
3899.000000	100.099174
3898.000000	100.099509
3897.000000	100.099939
3896.000000	100.100050
3895.000000	100.099607
3894.000000	100.098855
3893.000000	100.098440
3892.000000	100.098906
3891.000000	100.100186
3890.000000	100.101595
3889.000000	100.102301
3888.000000	100.101889
3887.000000	100.100723
3886.000000	100.099773
3885.000000	100.099942
3884.000000	100.101376
3883.000000	100.103336
3882.000000	100.104801
3881.000000	100.105267
3880.000000	100.105077
3879.000000	100.104920
3878.000000	100.104990
3877.000000	100.104891
3876.000000	100.104297
3875.000000	100.103258
3874.000000	100.102059
3873.000000	100.101096
3872.000000	100.100728
3871.000000	100.101317
3870.000000	100.103294
3869.000000	100.106719
3868.000000	100.110586
3867.000000	100.112964
3866.000000	100.112224
3865.000000	100.108171
3864.000000	100.102229
3863.000000	100.096498
3862.000000	100.092071
3861.000000	100.088709
3860.000000	100.086491
3859.000000	100.086695
3858.000000	100.090656
3857.000000	100.098419
3856.000000	100.108325
3855.000000	100.117352
3854.000000	100.123085
3853.000000	100.126525
3852.000000	100.130304
3851.000000	100.133948
3850.000000	100.134793
3849.000000	100.132469
3848.000000	100.129030
3847.000000	100.125934
3846.000000	100.123194
3845.000000	100.120337
3844.000000	100.117506
3843.000000	100.115653
3842.000000	100.115578
3841.000000	100.117134
3840.000000	100.119558
3839.000000	100.122296
3838.000000	100.125521
3837.000000	100.129587
3836.000000	100.133723
3835.000000	100.135978
3834.000000	100.134935
3833.000000	100.131147
3832.000000	100.126950
3831.000000	100.124731
3830.000000	100.125045
3829.000000	100.126411
3828.000000	100.126847
3827.000000	100.125751
3826.000000	100.124286
3825.000000	100.123872
3824.000000	100.124594
3823.000000	100.125156
3822.000000	100.124440
3821.000000	100.123303
3820.000000	100.123804
3819.000000	100.126331
3818.000000	100.128929
3817.000000	100.129750
3816.000000	100.129191
3815.000000	100.129153
3814.000000	100.130358
3813.000000	100.131158
3812.000000	100.129432
3811.000000	100.124618
3810.000000	100.117733
3809.000000	100.110464
3808.000000	100.104723
3807.000000	100.102466
3806.000000	100.104605
3805.000000	100.109875
3804.000000	100.115465
3803.000000	100.119126
3802.000000	100.120851
3801.000000	100.122809
3800.000000	100.126785
3799.000000	100.131456
3798.000000	100.133488
3797.000000	100.130849
3796.000000	100.123867
3795.000000	100.114341
3794.000000	100.104527
3793.000000	100.096451
3792.000000	100.091601
3791.000000	100.090407
3790.000000	100.091881
3789.000000	100.094138
3788.000000	100.095425
3787.000000	100.094841
3786.000000	100.092518
3785.000000	100.089502
3784.000000	100.087169
3783.000000	100.086209
3782.000000	100.086091
3781.000000	100.085617
3780.000000	100.084115
3779.000000	100.082224
3778.000000	100.081341
3777.000000	100.082216
3776.000000	100.084544
3775.000000	100.087753
3774.000000	100.091350
3773.000000	100.094719
3772.000000	100.097374
3771.000000	100.099491
3770.000000	100.101773
3769.000000	100.104341
3768.000000	100.106024
3767.000000	100.105357
3766.000000	100.102436
3765.000000	100.099287
3764.000000	100.097980
3763.000000	100.098816
3762.000000	100.100458
3761.000000	100.101309
3760.000000	100.100873
3759.000000	100.100244
3758.000000	100.101165
3757.000000	100.104225
3756.000000	100.108349
3755.000000	100.112004
3754.000000	100.114122
3753.000000	100.114182
3752.000000	100.112592
3751.000000	100.111480
3750.000000	100.113484
3749.000000	100.118340
3748.000000	100.122564
3747.000000	100.123663
3746.000000	100.122823
3745.000000	100.123047
3744.000000	100.125869
3743.000000	100.129596
3742.000000	100.130694
3741.000000	100.127556
3740.000000	100.122367
3739.000000	100.119358
3738.000000	100.121402
3737.000000	100.126935
3736.000000	100.130361
3735.000000	100.127242
3734.000000	100.118188
3733.000000	100.107171
3732.000000	100.097326
3731.000000	100.089314
3730.000000	100.082683
3729.000000	100.077474
3728.000000	100.074585
3727.000000	100.074583
3726.000000	100.076298
3725.000000	100.077374
3724.000000	100.076483
3723.000000	100.074359
3722.000000	100.072475
3721.000000	100.071059
3720.000000	100.068771
3719.000000	100.064393
3718.000000	100.058539
3717.000000	100.053379
3716.000000	100.050754
3715.000000	100.050841
3714.000000	100.052106
3713.000000	100.052332
3712.000000	100.050583
3711.000000	100.048320
3710.000000	100.047359
3709.000000	100.046785
3708.000000	100.043657
3707.000000	100.036575
3706.000000	100.026933
3705.000000	100.017123
3704.000000	100.008772
3703.000000	100.002404
3702.000000	99.998045
3701.000000	99.995611
3700.000000	99.994542
3699.000000	99.993661
3698.000000	99.992088
3697.000000	99.990066
3696.000000	99.988368
3695.000000	99.987470
3694.000000	99.987589
3693.000000	99.989086
3692.000000	99.992120
3691.000000	99.995586
3690.000000	99.997281
3689.000000	99.996732
3688.000000	99.996719
3687.000000	99.999162
3686.000000	100.001571
3685.000000	99.999960
3684.000000	99.992677
3683.000000	99.981384
3682.000000	99.970280
3681.000000	99.963486
3680.000000	99.962489
3679.000000	99.965803
3678.000000	99.970241
3677.000000	99.972478
3676.000000	99.971185
3675.000000	99.968781
3674.000000	99.968143
3673.000000	99.967529
3672.000000	99.962935
3671.000000	99.953172
3670.000000	99.940197
3669.000000	99.927451
3668.000000	99.916757
3667.000000	99.906495
3666.000000	99.894717
3665.000000	99.881748
3664.000000	99.868610
3663.000000	99.855787
3662.000000	99.844169
3661.000000	99.835285
3660.000000	99.829873
3659.000000	99.826744
3658.000000	99.823399
3657.000000	99.818091
3656.000000	99.811176
3655.000000	99.803975
3654.000000	99.797168
3653.000000	99.791746
3652.000000	99.790398
3651.000000	99.795215
3650.000000	99.803089
3649.000000	99.806547
3648.000000	99.801835
3647.000000	99.791284
3646.000000	99.777835
3645.000000	99.763078
3644.000000	99.748472
3643.000000	99.735501
3642.000000	99.725349
3641.000000	99.718129
3640.000000	99.712586
3639.000000	99.707320
3638.000000	99.702132
3637.000000	99.697498
3636.000000	99.693067
3635.000000	99.687748
3634.000000	99.681457
3633.000000	99.675737
3632.000000	99.671967
3631.000000	99.669497
3630.000000	99.666184
3629.000000	99.662127
3628.000000	99.661111
3627.000000	99.665195
3626.000000	99.671119
3625.000000	99.674394
3624.000000	99.673551
3623.000000	99.669642
3622.000000	99.664509
3621.000000	99.659460
3620.000000	99.654882
3619.000000	99.651564
3618.000000	99.651460
3617.000000	99.655863
3616.000000	99.663701
3615.000000	99.672430
3614.000000	99.680082
3613.000000	99.686918
3612.000000	99.695049
3611.000000	99.705397
3610.000000	99.715348
3609.000000	99.720502
3608.000000	99.719213
3607.000000	99.714784
3606.000000	99.712351
3605.000000	99.714312
3604.000000	99.719677
3603.000000	99.726275
3602.000000	99.732528
3601.000000	99.737659
3600.000000	99.741144
3599.000000	99.742775
3598.000000	99.743263
3597.000000	99.744018
3596.000000	99.745793
3595.000000	99.747761
3594.000000	99.748480
3593.000000	99.747683
3592.000000	99.746547
3591.000000	99.746402
3590.000000	99.747537
3589.000000	99.748981
3588.000000	99.749491
3587.000000	99.749205
3586.000000	99.749845
3585.000000	99.752654
3584.000000	99.756750
3583.000000	99.759700
3582.000000	99.759319
3581.000000	99.755438
3580.000000	99.750333
3579.000000	99.746998
3578.000000	99.746714
3577.000000	99.748524
3576.000000	99.750588
3575.000000	99.751821
3574.000000	99.752436
3573.000000	99.753256
3572.000000	99.754770
3571.000000	99.756707
3570.000000	99.758202
3569.000000	99.758275
3568.000000	99.756479
3567.000000	99.753446
3566.000000	99.750643
3565.000000	99.749141
3564.000000	99.748904
3563.000000	99.749345
3562.000000	99.749921
3561.000000	99.750132
3560.000000	99.749511
3559.000000	99.747931
3558.000000	99.745916
3557.000000	99.744332
3556.000000	99.743510
3555.000000	99.742843
3554.000000	99.741464
3553.000000	99.739406
3552.000000	99.737834
3551.000000	99.737838
3550.000000	99.739261
3549.000000	99.740822
3548.000000	99.741267
3547.000000	99.740343
3546.000000	99.738668
3545.000000	99.736870
3544.000000	99.735012
3543.000000	99.732965
3542.000000	99.731000
3541.000000	99.729665
3540.000000	99.729121
3539.000000	99.728931
3538.000000	99.728618
3537.000000	99.728228
3536.000000	99.728096
3535.000000	99.728236
3534.000000	99.728338
3533.000000	99.728377
3532.000000	99.728825
3531.000000	99.730148
3530.000000	99.732291
3529.000000	99.734651
3528.000000	99.736421
3527.000000	99.737031
3526.000000	99.736405
3525.000000	99.735028
3524.000000	99.733760
3523.000000	99.733329
3522.000000	99.733888
3521.000000	99.734933
3520.000000	99.735606
3519.000000	99.735247
3518.000000	99.733909
3517.000000	99.732480
3516.000000	99.732079
3515.000000	99.733114
3514.000000	99.734946
3513.000000	99.736469
3512.000000	99.737054
3511.000000	99.736826
3510.000000	99.736291
3509.000000	99.735924
3508.000000	99.736063
3507.000000	99.736869
3506.000000	99.738270
3505.000000	99.740004
3504.000000	99.741708
3503.000000	99.742910
3502.000000	99.743022
3501.000000	99.741714
3500.000000	99.739523
3499.000000	99.737872
3498.000000	99.738054
3497.000000	99.740097
3496.000000	99.742651
3495.000000	99.744210
3494.000000	99.744613
3493.000000	99.745179
3492.000000	99.747335
3491.000000	99.751032
3490.000000	99.754485
3489.000000	99.755727
3488.000000	99.754255
3487.000000	99.751133
3486.000000	99.747748
3485.000000	99.744734
3484.000000	99.742197
3483.000000	99.740293
3482.000000	99.739100
3481.000000	99.738277
3480.000000	99.737349
3479.000000	99.736284
3478.000000	99.735368
3477.000000	99.734541
3476.000000	99.733311
3475.000000	99.731544
3474.000000	99.730003
3473.000000	99.729723
3472.000000	99.730939
3471.000000	99.732887
3470.000000	99.734558
3469.000000	99.735379
3468.000000	99.735233
3467.000000	99.734174
3466.000000	99.732340
3465.000000	99.730084
3464.000000	99.727972
3463.000000	99.726549
3462.000000	99.726034
3461.000000	99.726138
3460.000000	99.726203
3459.000000	99.725724
3458.000000	99.724850
3457.000000	99.724235
3456.000000	99.724276
3455.000000	99.724578
3454.000000	99.724338
3453.000000	99.723212
3452.000000	99.721577
3451.000000	99.720082
3450.000000	99.719073
3449.000000	99.718463
3448.000000	99.717940
3447.000000	99.717278
3446.000000	99.716526
3445.000000	99.715951
3444.000000	99.715810
3443.000000	99.716125
3442.000000	99.716514
3441.000000	99.716427
3440.000000	99.715666
3439.000000	99.714602
3438.000000	99.713855
3437.000000	99.713693
3436.000000	99.713822
3435.000000	99.713698
3434.000000	99.713037
3433.000000	99.712045
3432.000000	99.711188
3431.000000	99.710707
3430.000000	99.710386
3429.000000	99.709808
3428.000000	99.708836
3427.000000	99.707778
3426.000000	99.707034
3425.000000	99.706616
3424.000000	99.706127
3423.000000	99.705211
3422.000000	99.703978
3421.000000	99.702920
3420.000000	99.702389
3419.000000	99.702228
3418.000000	99.701924
3417.000000	99.701095
3416.000000	99.699731
3415.000000	99.698106
3414.000000	99.696598
3413.000000	99.695566
3412.000000	99.695159
3411.000000	99.695122
3410.000000	99.694974
3409.000000	99.694493
3408.000000	99.693995
3407.000000	99.694053
3406.000000	99.695004
3405.000000	99.696741
3404.000000	99.698785
3403.000000	99.700439
3402.000000	99.701076
3401.000000	99.700522
3400.000000	99.699207
3399.000000	99.697853
3398.000000	99.696929
3397.000000	99.696427
3396.000000	99.696075
3395.000000	99.695647
3394.000000	99.695118
3393.000000	99.694683
3392.000000	99.694649
3391.000000	99.695136
3390.000000	99.695864
3389.000000	99.696324
3388.000000	99.696263
3387.000000	99.695956
3386.000000	99.695970
3385.000000	99.696634
3384.000000	99.697774
3383.000000	99.698884
3382.000000	99.699530
3381.000000	99.699634
3380.000000	99.699405
3379.000000	99.699124
3378.000000	99.699015
3377.000000	99.699224
3376.000000	99.699784
3375.000000	99.700505
3374.000000	99.700999
3373.000000	99.700981
3372.000000	99.700524
3371.000000	99.700001
3370.000000	99.699762
3369.000000	99.699848
3368.000000	99.700031
3367.000000	99.700048
3366.000000	99.699844
3365.000000	99.699616
3364.000000	99.699613
3363.000000	99.699899
3362.000000	99.700296
3361.000000	99.700582
3360.000000	99.700719
3359.000000	99.700817
3358.000000	99.700887
3357.000000	99.700754
3356.000000	99.700271
3355.000000	99.699562
3354.000000	99.698971
3353.000000	99.698739
3352.000000	99.698837
3351.000000	99.699065
3350.000000	99.699275
3349.000000	99.699465
3348.000000	99.699713
3347.000000	99.700091
3346.000000	99.700609
3345.000000	99.701141
3344.000000	99.701415
3343.000000	99.701183
3342.000000	99.700464
3341.000000	99.699613
3340.000000	99.699060
3339.000000	99.698932
3338.000000	99.699016
3337.000000	99.699029
3336.000000	99.698902
3335.000000	99.698776
3334.000000	99.698746
3333.000000	99.698675
3332.000000	99.698320
3331.000000	99.697640
3330.000000	99.696960
3329.000000	99.696719
3328.000000	99.697045
3327.000000	99.697668
3326.000000	99.698305
3325.000000	99.699067
3324.000000	99.700236
3323.000000	99.701654
3322.000000	99.702583
3321.000000	99.702409
3320.000000	99.701334
3319.000000	99.700303
3318.000000	99.700086
3317.000000	99.700566
3316.000000	99.700977
3315.000000	99.700727
3314.000000	99.700015
3313.000000	99.699672
3312.000000	99.700358
3311.000000	99.701883
3310.000000	99.703248
3309.000000	99.703532
3308.000000	99.702711
3307.000000	99.701538
3306.000000	99.700607
3305.000000	99.699718
3304.000000	99.698404
3303.000000	99.696934
3302.000000	99.696399
3301.000000	99.697664
3300.000000	99.700508
3299.000000	99.703804
3298.000000	99.706539
3297.000000	99.708451
3296.000000	99.709751
3295.000000	99.710604
3294.000000	99.711040
3293.000000	99.711188
3292.000000	99.711247
3291.000000	99.711219
3290.000000	99.710910
3289.000000	99.710240
3288.000000	99.709382
3287.000000	99.708515
3286.000000	99.707614
3285.000000	99.706587
3284.000000	99.705507
3283.000000	99.704624
3282.000000	99.704257
3281.000000	99.704723
3280.000000	99.706149
3279.000000	99.708150
3278.000000	99.709776
3277.000000	99.710127
3276.000000	99.709059
3275.000000	99.707262
3274.000000	99.705761
3273.000000	99.705249
3272.000000	99.705860
3271.000000	99.707238
3270.000000	99.708773
3269.000000	99.709944
3268.000000	99.710533
3267.000000	99.710493
3266.000000	99.709768
3265.000000	99.708441
3264.000000	99.706938
3263.000000	99.705839
3262.000000	99.705406
3261.000000	99.705475
3260.000000	99.705842
3259.000000	99.706493
3258.000000	99.707408
3257.000000	99.708367
3256.000000	99.709132
3255.000000	99.709682
3254.000000	99.710026
3253.000000	99.709911
3252.000000	99.708972
3251.000000	99.707231
3250.000000	99.705254
3249.000000	99.703702
3248.000000	99.702841
3247.000000	99.702623
3246.000000	99.703094
3245.000000	99.704426
3244.000000	99.706490
3243.000000	99.708632
3242.000000	99.710140
3241.000000	99.710859
3240.000000	99.711182
3239.000000	99.711504
3238.000000	99.711795
3237.000000	99.711719
3236.000000	99.711023
3235.000000	99.709791
3234.000000	99.708482
3233.000000	99.707730
3232.000000	99.707874
3231.000000	99.708648
3230.000000	99.709390
3229.000000	99.709626
3228.000000	99.709382
3227.000000	99.708905
3226.000000	99.708365
3225.000000	99.707903
3224.000000	99.707721
3223.000000	99.707960
3222.000000	99.708607
3221.000000	99.709625
3220.000000	99.711003
3219.000000	99.712476
3218.000000	99.713416
3217.000000	99.713359
3216.000000	99.712502
3215.000000	99.711593
3214.000000	99.711210
3213.000000	99.711279
3212.000000	99.711450
3211.000000	99.711600
3210.000000	99.711844
3209.000000	99.712216
3208.000000	99.712559
3207.000000	99.712722
3206.000000	99.712719
3205.000000	99.712662
3204.000000	99.712639
3203.000000	99.712663
3202.000000	99.712711
3201.000000	99.712766
3200.000000	99.712840
3199.000000	99.712958
3198.000000	99.713128
3197.000000	99.713345
3196.000000	99.713613
3195.000000	99.713924
3194.000000	99.714211
3193.000000	99.714392
3192.000000	99.714500
3191.000000	99.714720
3190.000000	99.715224
3189.000000	99.715964
3188.000000	99.716649
3187.000000	99.716990
3186.000000	99.716904
3185.000000	99.716523
3184.000000	99.716111
3183.000000	99.715912
3182.000000	99.716032
3181.000000	99.716401
3180.000000	99.716827
3179.000000	99.717170
3178.000000	99.717457
3177.000000	99.717810
3176.000000	99.718321
3175.000000	99.719007
3174.000000	99.719804
3173.000000	99.720555
3172.000000	99.721064
3171.000000	99.721235
3170.000000	99.721191
3169.000000	99.721208
3168.000000	99.721515
3167.000000	99.722158
3166.000000	99.723002
3165.000000	99.723811
3164.000000	99.724397
3163.000000	99.724756
3162.000000	99.725062
3161.000000	99.725452
3160.000000	99.725806
3159.000000	99.725850
3158.000000	99.725504
3157.000000	99.725079
3156.000000	99.725020
3155.000000	99.725515
3154.000000	99.726445
3153.000000	99.727592
3152.000000	99.728790
3151.000000	99.729850
3150.000000	99.730594
3149.000000	99.731031
3148.000000	99.731358
3147.000000	99.731668
3146.000000	99.731779
3145.000000	99.731517
3144.000000	99.731101
3143.000000	99.731055
3142.000000	99.731670
3141.000000	99.732786
3140.000000	99.733997
3139.000000	99.735001
3138.000000	99.735745
3137.000000	99.736305
3136.000000	99.736769
3135.000000	99.737210
3134.000000	99.737705
3133.000000	99.738309
3132.000000	99.738979
3131.000000	99.739566
3130.000000	99.739958
3129.000000	99.740255
3128.000000	99.740710
3127.000000	99.741453
3126.000000	99.742358
3125.000000	99.743230
3124.000000	99.744012
3123.000000	99.744727
3122.000000	99.745324
3121.000000	99.745721
3120.000000	99.745923
3119.000000	99.745964
3118.000000	99.745841
3117.000000	99.745645
3116.000000	99.745654
3115.000000	99.746097
3114.000000	99.746867
3113.000000	99.747544
3112.000000	99.747768
3111.000000	99.747560
3110.000000	99.747308
3109.000000	99.747458
3108.000000	99.748189
3107.000000	99.749310
3106.000000	99.750392
3105.000000	99.751140
3104.000000	99.751641
3103.000000	99.752165
3102.000000	99.752706
3101.000000	99.752927
3100.000000	99.752680
3099.000000	99.752371
3098.000000	99.752592
3097.000000	99.753579
3096.000000	99.755175
3095.000000	99.757021
3094.000000	99.758554
3093.000000	99.759112
3092.000000	99.758458
3091.000000	99.757226
3090.000000	99.756452
3089.000000	99.756543
3088.000000	99.757034
3087.000000	99.757339
3086.000000	99.757413
3085.000000	99.757501
3084.000000	99.757562
3083.000000	99.757252
3082.000000	99.756433
3081.000000	99.755492
3080.000000	99.755085
3079.000000	99.755627
3078.000000	99.757011
3077.000000	99.758798
3076.000000	99.760654
3075.000000	99.762596
3074.000000	99.764765
3073.000000	99.767004
3072.000000	99.768693
3071.000000	99.769063
3070.000000	99.767688
3069.000000	99.764770
3068.000000	99.761069
3067.000000	99.757545
3066.000000	99.755010
3065.000000	99.753833
3064.000000	99.753671
3063.000000	99.753533
3062.000000	99.752579
3061.000000	99.751213
3060.000000	99.751034
3059.000000	99.753260
3058.000000	99.757307
3057.000000	99.761210
3056.000000	99.763583
3055.000000	99.764693
3054.000000	99.765503
3053.000000	99.766285
3052.000000	99.766610
3051.000000	99.766408
3050.000000	99.766447
3049.000000	99.767614
3048.000000	99.769814
3047.000000	99.771713
3046.000000	99.771734
3045.000000	99.769416
3044.000000	99.765799
3043.000000	99.762423
3042.000000	99.760035
3041.000000	99.758608
3040.000000	99.758272
3039.000000	99.759369
3038.000000	99.761461
3037.000000	99.763142
3036.000000	99.763436
3035.000000	99.762898
3034.000000	99.762760
3033.000000	99.763461
3032.000000	99.764704
3031.000000	99.766516
3030.000000	99.769223
3029.000000	99.772346
3028.000000	99.774480
3027.000000	99.774728
3026.000000	99.773812
3025.000000	99.773361
3024.000000	99.774318
3023.000000	99.776294
3022.000000	99.778242
3021.000000	99.779429
3020.000000	99.779849
3019.000000	99.780023
3018.000000	99.780636
3017.000000	99.782332
3016.000000	99.785510
3015.000000	99.789900
3014.000000	99.794259
3013.000000	99.797021
3012.000000	99.797817
3011.000000	99.798160
3010.000000	99.800016
3009.000000	99.803726
3008.000000	99.807836
3007.000000	99.810885
3006.000000	99.812809
3005.000000	99.814421
3004.000000	99.816283
3003.000000	99.818471
3002.000000	99.820870
3001.000000	99.823103
3000.000000	99.824592
2999.000000	99.825340
2998.000000	99.826489
2997.000000	99.829463
2996.000000	99.834491
2995.000000	99.840317
2994.000000	99.845360
2993.000000	99.848850
2992.000000	99.850964
2991.000000	99.852547
2990.000000	99.854844
2989.000000	99.858868
2988.000000	99.864479
2987.000000	99.870374
2986.000000	99.875386
2985.000000	99.879558
2984.000000	99.883633
2983.000000	99.887998
2982.000000	99.892775
2981.000000	99.898415
2980.000000	99.905119
2979.000000	99.911659
2978.000000	99.915996
2977.000000	99.917520
2976.000000	99.917916
2975.000000	99.919474
2974.000000	99.923149
2973.000000	99.928696
2972.000000	99.935557
2971.000000	99.942492
2970.000000	99.946976
2969.000000	99.946604
2968.000000	99.941441
2967.000000	99.934384
2966.000000	99.928902
2965.000000	99.926997
2964.000000	99.929136
2963.000000	99.934697
2962.000000	99.941899
2961.000000	99.948465
2960.000000	99.953174
2959.000000	99.956152
2958.000000	99.957218
2957.000000	99.955055
2956.000000	99.949089
2955.000000	99.941460
2954.000000	99.935868
2953.000000	99.934437
2952.000000	99.936472
2951.000000	99.940017
2950.000000	99.943826
2949.000000	99.947887
2948.000000	99.952879
2947.000000	99.959389
2946.000000	99.967177
2945.000000	99.974917
2944.000000	99.980880
2943.000000	99.984191
2942.000000	99.985726
2941.000000	99.988151
2940.000000	99.994955
2939.000000	100.008221
2938.000000	100.026384
2937.000000	100.044648
2936.000000	100.058907
2935.000000	100.069363
2934.000000	100.079379
2933.000000	100.090986
2932.000000	100.102695
2931.000000	100.112238
2930.000000	100.119921
2929.000000	100.127839
2928.000000	100.136201
2927.000000	100.142100
2926.000000	100.142592
2925.000000	100.138098
2924.000000	100.131793
2923.000000	100.126003
2922.000000	100.119962
2921.000000	100.111102
2920.000000	100.097963
2919.000000	100.081782
2918.000000	100.065887
2917.000000	100.053644
2916.000000	100.046262
2915.000000	100.041911
2914.000000	100.037215
2913.000000	100.030106
2912.000000	100.021344
2911.000000	100.013018
2910.000000	100.005911
2909.000000	99.998906
2908.000000	99.990935
2907.000000	99.982748
2906.000000	99.976286
2905.000000	99.972546
2904.000000	99.970508
2903.000000	99.968260
2902.000000	99.965044
2901.000000	99.961944
2900.000000	99.960415
2899.000000	99.960331
2898.000000	99.959983
2897.000000	99.957982
2896.000000	99.954511
2895.000000	99.950337
2894.000000	99.945378
2893.000000	99.939195
2892.000000	99.932573
2891.000000	99.927483
2890.000000	99.925275
2889.000000	99.925777
2888.000000	99.928389
2887.000000	99.932946
2886.000000	99.938561
2885.000000	99.942364
2884.000000	99.940932
2883.000000	99.933607
2882.000000	99.923923
2881.000000	99.917079
2880.000000	99.915892
2879.000000	99.919153
2878.000000	99.923431
2877.000000	99.926025
2876.000000	99.926409
2875.000000	99.925701
2874.000000	99.925450
2873.000000	99.926527
2872.000000	99.928392
2871.000000	99.929328
2870.000000	99.927971
2869.000000	99.924721
2868.000000	99.921336
2867.000000	99.919464
2866.000000	99.920366
2865.000000	99.925559
2864.000000	99.935820
2863.000000	99.948828
2862.000000	99.959614
2861.000000	99.964943
2860.000000	99.966263
2859.000000	99.967085
2858.000000	99.968599
2857.000000	99.969712
2856.000000	99.970282
2855.000000	99.971520
2854.000000	99.973132
2853.000000	99.972609
2852.000000	99.968108
2851.000000	99.960337
2850.000000	99.951108
2849.000000	99.941756
2848.000000	99.933573
2847.000000	99.927855
2846.000000	99.924124
2845.000000	99.919604
2844.000000	99.911912
2843.000000	99.901557
2842.000000	99.890783
2841.000000	99.880762
2840.000000	99.871231
2839.000000	99.862450
2838.000000	99.856086
2837.000000	99.853676
2836.000000	99.854762
2835.000000	99.856657
2834.000000	99.856075
2833.000000	99.851588
2832.000000	99.845042
2831.000000	99.840238
2830.000000	99.839655
2829.000000	99.842487
2828.000000	99.845688
2827.000000	99.846553
2826.000000	99.844319
2825.000000	99.840190
2824.000000	99.836280
2823.000000	99.833981
2822.000000	99.832937
2821.000000	99.831962
2820.000000	99.830878
2819.000000	99.830493
2818.000000	99.830745
2817.000000	99.830312
2816.000000	99.828772
2815.000000	99.827827
2814.000000	99.829241
2813.000000	99.832385
2812.000000	99.834855
2811.000000	99.835040
2810.000000	99.833274
2809.000000	99.831048
2808.000000	99.830028
2807.000000	99.831306
2806.000000	99.834438
2805.000000	99.837233
2804.000000	99.837479
2803.000000	99.835128
2802.000000	99.832198
2801.000000	99.830590
2800.000000	99.830559
2799.000000	99.831236
2798.000000	99.831796
2797.000000	99.831845
2796.000000	99.831398
2795.000000	99.830978
2794.000000	99.831410
2793.000000	99.833032
2792.000000	99.835239
2791.000000	99.836956
2790.000000	99.837665
2789.000000	99.837765
2788.000000	99.837959
2787.000000	99.838510
2786.000000	99.839168
2785.000000	99.839633
2784.000000	99.839906
2783.000000	99.840191
2782.000000	99.840597
2781.000000	99.841051
2780.000000	99.841468
2779.000000	99.841852
2778.000000	99.842248
2777.000000	99.842673
2776.000000	99.843105
2775.000000	99.843521
2774.000000	99.843912
2773.000000	99.844284
2772.000000	99.844648
2771.000000	99.845014
2770.000000	99.845384
2769.000000	99.845759
2768.000000	99.846139
2767.000000	99.846524
2766.000000	99.846907
2765.000000	99.847276
2764.000000	99.847623
2763.000000	99.847959
2762.000000	99.848317
2761.000000	99.848717
2760.000000	99.849162
2759.000000	99.849618
2758.000000	99.850052
2757.000000	99.850454
2756.000000	99.850831
2755.000000	99.851199
2754.000000	99.851552
2753.000000	99.851871
2752.000000	99.852151
2751.000000	99.852418
2750.000000	99.852707
2749.000000	99.853040
2748.000000	99.853441
2747.000000	99.853947
2746.000000	99.854575
2745.000000	99.855270
2744.000000	99.855921
2743.000000	99.856431
2742.000000	99.856776
2741.000000	99.857000
2740.000000	99.857197
2739.000000	99.857456
2738.000000	99.857795
2737.000000	99.858190
2736.000000	99.858631
2735.000000	99.859128
2734.000000	99.859637
2733.000000	99.860047
2732.000000	99.860318
2731.000000	99.860591
2730.000000	99.861044
2729.000000	99.861682
2728.000000	99.862391
2727.000000	99.863128
2726.000000	99.863893
2725.000000	99.864560
2724.000000	99.864936
2723.000000	99.865018
2722.000000	99.865045
2721.000000	99.865226
2720.000000	99.865490
2719.000000	99.865656
2718.000000	99.865722
2717.000000	99.865838
2716.000000	99.866100
2715.000000	99.866501
2714.000000	99.867013
2713.000000	99.867606
2712.000000	99.868244
2711.000000	99.868915
2710.000000	99.869565
2709.000000	99.869996
2708.000000	99.870023
2707.000000	99.869789
2706.000000	99.869775
2705.000000	99.870308
2704.000000	99.871176
2703.000000	99.871820
2702.000000	99.871804
2701.000000	99.871071
2700.000000	99.869991
2699.000000	99.869355
2698.000000	99.870074
2697.000000	99.872474
2696.000000	99.875643
2695.000000	99.877736
2694.000000	99.877426
2693.000000	99.874939
2692.000000	99.872008
2691.000000	99.870530
2690.000000	99.871008
2689.000000	99.872221
2688.000000	99.872265
2687.000000	99.870224
2686.000000	99.866890
2685.000000	99.863945
2684.000000	99.862277
2683.000000	99.861327
2682.000000	99.860105
2681.000000	99.858573
2680.000000	99.857680
2679.000000	99.858060
2678.000000	99.859210
2677.000000	99.860221
2676.000000	99.860906
2675.000000	99.861635
2674.000000	99.862453
2673.000000	99.863156
2672.000000	99.864203
2671.000000	99.866561
2670.000000	99.870213
2669.000000	99.873442
2668.000000	99.874381
2667.000000	99.872796
2666.000000	99.869892
2665.000000	99.866964
2664.000000	99.864772
2663.000000	99.863870
2662.000000	99.864418
2661.000000	99.865505
2660.000000	99.865665
2659.000000	99.864472
2658.000000	99.862971
2657.000000	99.862244
2656.000000	99.862306
2655.000000	99.862836
2654.000000	99.864150
2653.000000	99.866655
2652.000000	99.869799
2651.000000	99.872341
2650.000000	99.873690
2649.000000	99.874340
2648.000000	99.874958
2647.000000	99.875530
2646.000000	99.875572
2645.000000	99.874997
2644.000000	99.874514
2643.000000	99.875027
2642.000000	99.876666
2641.000000	99.878477
2640.000000	99.879229
2639.000000	99.878595
2638.000000	99.877321
2637.000000	99.876477
2636.000000	99.876447
2635.000000	99.876804
2634.000000	99.876956
2633.000000	99.876761
2632.000000	99.876552
2631.000000	99.876645
2630.000000	99.876935
2629.000000	99.877074
2628.000000	99.877007
2627.000000	99.877116
2626.000000	99.877712
2625.000000	99.878578
2624.000000	99.879152
2623.000000	99.879167
2622.000000	99.878820
2621.000000	99.878411
2620.000000	99.878026
2619.000000	99.877664
2618.000000	99.877425
2617.000000	99.877394
2616.000000	99.877494
2615.000000	99.877576
2614.000000	99.877581
2613.000000	99.877533
2612.000000	99.877443
2611.000000	99.877288
2610.000000	99.877070
2609.000000	99.876834
2608.000000	99.876643
2607.000000	99.876522
2606.000000	99.876457
2605.000000	99.876418
2604.000000	99.876384
2603.000000	99.876342
2602.000000	99.876291
2601.000000	99.876242
2600.000000	99.876217
2599.000000	99.876235
2598.000000	99.876291
2597.000000	99.876375
2596.000000	99.876474
2595.000000	99.876577
2594.000000	99.876676
2593.000000	99.876771
2592.000000	99.876867
2591.000000	99.876968
2590.000000	99.877080
2589.000000	99.877200
2588.000000	99.877326
2587.000000	99.877450
2586.000000	99.877566
2585.000000	99.877668
2584.000000	99.877757
2583.000000	99.877845
2582.000000	99.877950
2581.000000	99.878089
2580.000000	99.878266
2579.000000	99.878475
2578.000000	99.878704
2577.000000	99.878944
2576.000000	99.879189
2575.000000	99.879435
2574.000000	99.879684
2573.000000	99.879941
2572.000000	99.880215
2571.000000	99.880507
2570.000000	99.880819
2569.000000	99.881146
2568.000000	99.881487
2567.000000	99.881837
2566.000000	99.882191
2565.000000	99.882544
2564.000000	99.882888
2563.000000	99.883219
2562.000000	99.883539
2561.000000	99.883854
2560.000000	99.884172
2559.000000	99.884499
2558.000000	99.884833
2557.000000	99.885169
2556.000000	99.885501
2555.000000	99.885826
2554.000000	99.886145
2553.000000	99.886463
2552.000000	99.886788
2551.000000	99.887123
2550.000000	99.887452
2549.000000	99.887768
2548.000000	99.888087
2547.000000	99.888428
2546.000000	99.888781
2545.000000	99.889124
2544.000000	99.889480
2543.000000	99.889908
2542.000000	99.890444
2541.000000	99.891040
2540.000000	99.891584
2539.000000	99.891980
2538.000000	99.892210
2537.000000	99.892355
2536.000000	99.892519
2535.000000	99.892771
2534.000000	99.893126
2533.000000	99.893556
2532.000000	99.893998
2531.000000	99.894398
2530.000000	99.894771
2529.000000	99.895188
2528.000000	99.895649
2527.000000	99.895994
2526.000000	99.896038
2525.000000	99.895800
2524.000000	99.895562
2523.000000	99.895629
2522.000000	99.896041
2521.000000	99.896617
2520.000000	99.897164
2519.000000	99.897628
2518.000000	99.898042
2517.000000	99.898406
2516.000000	99.898675
2515.000000	99.898831
2514.000000	99.898891
2513.000000	99.898889
2512.000000	99.898912
2511.000000	99.899070
2510.000000	99.899363
2509.000000	99.899641
2508.000000	99.899795
2507.000000	99.899948
2506.000000	99.900321
2505.000000	99.900937
2504.000000	99.901600
2503.000000	99.902165
2502.000000	99.902672
2501.000000	99.903200
2500.000000	99.903733
2499.000000	99.904241
2498.000000	99.904758
2497.000000	99.905257
2496.000000	99.905584
2495.000000	99.905647
2494.000000	99.905597
2493.000000	99.905702
2492.000000	99.906021
2491.000000	99.906349
2490.000000	99.906467
2489.000000	99.906400
2488.000000	99.906418
2487.000000	99.906817
2486.000000	99.907636
2485.000000	99.908528
2484.000000	99.909063
2483.000000	99.909247
2482.000000	99.909653
2481.000000	99.910821
2480.000000	99.912643
2479.000000	99.914365
2478.000000	99.915287
2477.000000	99.915264
2476.000000	99.914581
2475.000000	99.913699
2474.000000	99.913065
2473.000000	99.912913
2472.000000	99.913188
2471.000000	99.913669
2470.000000	99.914169
2469.000000	99.914598
2468.000000	99.914905
2467.000000	99.915055
2466.000000	99.915092
2465.000000	99.915131
2464.000000	99.915217
2463.000000	99.915297
2462.000000	99.915359
2461.000000	99.915500
2460.000000	99.915756
2459.000000	99.915985
2458.000000	99.916036
2457.000000	99.915956
2456.000000	99.915897
2455.000000	99.915876
2454.000000	99.915800
2453.000000	99.915704
2452.000000	99.915786
2451.000000	99.916147
2450.000000	99.916642
2449.000000	99.917067
2448.000000	99.917369
2447.000000	99.917579
2446.000000	99.917709
2445.000000	99.917854
2444.000000	99.918291
2443.000000	99.919233
2442.000000	99.920454
2441.000000	99.921338
2440.000000	99.921445
2439.000000	99.920886
2438.000000	99.920201
2437.000000	99.919919
2436.000000	99.920288
2435.000000	99.921275
2434.000000	99.922541
2433.000000	99.923515
2432.000000	99.923726
2431.000000	99.923108
2430.000000	99.922006
2429.000000	99.920940
2428.000000	99.920437
2427.000000	99.920963
2426.000000	99.922704
2425.000000	99.925326
2424.000000	99.928121
2423.000000	99.930504
2422.000000	99.932246
2421.000000	99.933249
2420.000000	99.933359
2419.000000	99.932592
2418.000000	99.931438
2417.000000	99.930722
2416.000000	99.931024
2415.000000	99.932297
2414.000000	99.934024
2413.000000	99.935788
2412.000000	99.937669
2411.000000	99.939961
2410.000000	99.942511
2409.000000	99.944537
2408.000000	99.945353
2407.000000	99.945174
2406.000000	99.944962
2405.000000	99.945398
2404.000000	99.946249
2403.000000	99.946879
2402.000000	99.947058
2401.000000	99.947017
2400.000000	99.946957
2399.000000	99.946874
2398.000000	99.946827
2397.000000	99.947094
2396.000000	99.947895
2395.000000	99.949065
2394.000000	99.950137
2393.000000	99.950722
2392.000000	99.950856
2391.000000	99.950934
2390.000000	99.951275
2389.000000	99.951820
2388.000000	99.952261
2387.000000	99.952430
2386.000000	99.952439
2385.000000	99.952474
2384.000000	99.952601
2383.000000	99.952759
2382.000000	99.952849
2381.000000	99.952808
2380.000000	99.952649
2379.000000	99.952475
2378.000000	99.952416
2377.000000	99.952542
2376.000000	99.952809
2375.000000	99.953113
2374.000000	99.953361
2373.000000	99.953511
2372.000000	99.953575
2371.000000	99.953584
2370.000000	99.953565
2369.000000	99.953533
2368.000000	99.953495
2367.000000	99.953457
2366.000000	99.953427
2365.000000	99.953410
2364.000000	99.953406
2363.000000	99.953409
2362.000000	99.953414
2361.000000	99.953424
2360.000000	99.953438
2359.000000	99.953453
2358.000000	99.953461
2357.000000	99.953455
2356.000000	99.953439
2355.000000	99.953419
2354.000000	99.953407
2353.000000	99.953416
2352.000000	99.953454
2351.000000	99.953504
2350.000000	99.953532
2349.000000	99.953506
2348.000000	99.953422
2347.000000	99.953308
2346.000000	99.953213
2345.000000	99.953198
2344.000000	99.953300
2343.000000	99.953483
2342.000000	99.953691
2341.000000	99.953927
2340.000000	99.954195
2339.000000	99.954446
2338.000000	99.954576
2337.000000	99.954576
2336.000000	99.954525
2335.000000	99.954452
2334.000000	99.954284
2333.000000	99.954005
2332.000000	99.953738
2331.000000	99.953627
2330.000000	99.953671
2329.000000	99.953842
2328.000000	99.954152
2327.000000	99.954577
2326.000000	99.955216
2325.000000	99.956230
2324.000000	99.957767
2323.000000	99.959402
2322.000000	99.960396
2321.000000	99.960400
2320.000000	99.959816
2319.000000	99.959352
2318.000000	99.959134
2317.000000	99.958805
2316.000000	99.958116
2315.000000	99.957330
2314.000000	99.956953
2313.000000	99.957322
2312.000000	99.958482
2311.000000	99.960115
2310.000000	99.961642
2309.000000	99.962533
2308.000000	99.962683
2307.000000	99.962248
2306.000000	99.961546
2305.000000	99.960900
2304.000000	99.960747
2303.000000	99.961322
2302.000000	99.962394
2301.000000	99.963400
2300.000000	99.964047
2299.000000	99.964434
2298.000000	99.964717
2297.000000	99.964870
2296.000000	99.965003
2295.000000	99.965458
2294.000000	99.966354
2293.000000	99.967137
2292.000000	99.967115
2291.000000	99.966226
2290.000000	99.965071
2289.000000	99.964197
2288.000000	99.963656
2287.000000	99.963305
2286.000000	99.963148
2285.000000	99.963215
2284.000000	99.963360
2283.000000	99.963386
2282.000000	99.963306
2281.000000	99.963304
2280.000000	99.963460
2279.000000	99.963669
2278.000000	99.963772
2277.000000	99.963687
2276.000000	99.963379
2275.000000	99.962877
2274.000000	99.962343
2273.000000	99.961999
2272.000000	99.961938
2271.000000	99.962045
2270.000000	99.962122
2269.000000	99.962031
2268.000000	99.961720
2267.000000	99.961188
2266.000000	99.960555
2265.000000	99.960062
2264.000000	99.959895
2263.000000	99.960032
2262.000000	99.960261
2261.000000	99.960335
2260.000000	99.960113
2259.000000	99.959601
2258.000000	99.958934
2257.000000	99.958303
2256.000000	99.957820
2255.000000	99.957462
2254.000000	99.957162
2253.000000	99.956903
2252.000000	99.956665
2251.000000	99.956314
2250.000000	99.955712
2249.000000	99.954934
2248.000000	99.954288
2247.000000	99.953989
2246.000000	99.953915
2245.000000	99.953746
2244.000000	99.953323
2243.000000	99.952715
2242.000000	99.952030
2241.000000	99.951331
2240.000000	99.950763
2239.000000	99.950529
2238.000000	99.950678
2237.000000	99.951018
2236.000000	99.951324
2235.000000	99.951536
2234.000000	99.951691
2233.000000	99.951763
2232.000000	99.951655
2231.000000	99.951324
2230.000000	99.950844
2229.000000	99.950383
2228.000000	99.950115
2227.000000	99.950094
2226.000000	99.950178
2225.000000	99.950111
2224.000000	99.949755
2223.000000	99.949204
2222.000000	99.948698
2221.000000	99.948420
2220.000000	99.948371
2219.000000	99.948434
2218.000000	99.948496
2217.000000	99.948526
2216.000000	99.948546
2215.000000	99.948575
2214.000000	99.948609
2213.000000	99.948645
2212.000000	99.948715
2211.000000	99.948859
2210.000000	99.949066
2209.000000	99.949279
2208.000000	99.949462
2207.000000	99.949643
2206.000000	99.949865
2205.000000	99.950125
2204.000000	99.950393
2203.000000	99.950654
2202.000000	99.950912
2201.000000	99.951173
2200.000000	99.951434
2199.000000	99.951696
2198.000000	99.951959
2197.000000	99.952221
2196.000000	99.952485
2195.000000	99.952755
2194.000000	99.953037
2193.000000	99.953336
2192.000000	99.953655
2191.000000	99.953989
2190.000000	99.954336
2189.000000	99.954691
2188.000000	99.955057
2187.000000	99.955436
2186.000000	99.955831
2185.000000	99.956242
2184.000000	99.956651
2183.000000	99.957038
2182.000000	99.957399
2181.000000	99.957762
2180.000000	99.958164
2179.000000	99.958622
2178.000000	99.959126
2177.000000	99.959666
2176.000000	99.960245
2175.000000	99.960853
2174.000000	99.961438
2173.000000	99.961955
2172.000000	99.962417
2171.000000	99.962861
2170.000000	99.963238
2169.000000	99.963442
2168.000000	99.963481
2167.000000	99.963553
2166.000000	99.963871
2165.000000	99.964445
2164.000000	99.965109
2163.000000	99.965697
2162.000000	99.966111
2161.000000	99.966249
2160.000000	99.966069
2159.000000	99.965778
2158.000000	99.965790
2157.000000	99.966379
2156.000000	99.967489
2155.000000	99.968844
2154.000000	99.970180
2153.000000	99.971303
2152.000000	99.972082
2151.000000	99.972533
2150.000000	99.972818
2149.000000	99.973029
2148.000000	99.973088
2147.000000	99.973002
2146.000000	99.973073
2145.000000	99.973573
2144.000000	99.974319
2143.000000	99.974801
2142.000000	99.974777
2141.000000	99.974542
2140.000000	99.974580
2139.000000	99.975148
2138.000000	99.976262
2137.000000	99.977761
2136.000000	99.979287
2135.000000	99.980454
2134.000000	99.981175
2133.000000	99.981718
2132.000000	99.982337
2131.000000	99.982954
2130.000000	99.983375
2129.000000	99.983685
2128.000000	99.984245
2127.000000	99.985274
2126.000000	99.986574
2125.000000	99.987676
2124.000000	99.988258
2123.000000	99.988389
2122.000000	99.988474
2121.000000	99.988916
2120.000000	99.989798
2119.000000	99.990880
2118.000000	99.991901
2117.000000	99.992875
2116.000000	99.993981
2115.000000	99.995240
2114.000000	99.996433
2113.000000	99.997350
2112.000000	99.997971
2111.000000	99.998379
2110.000000	99.998659
2109.000000	99.998907
2108.000000	99.999214
2107.000000	99.999593
2106.000000	100.000007
2105.000000	100.000488
2104.000000	100.001133
2103.000000	100.001955
2102.000000	100.002829
2101.000000	100.003621
2100.000000	100.004249
2099.000000	100.004590
2098.000000	100.004509
2097.000000	100.004094
2096.000000	100.003791
2095.000000	100.004095
2094.000000	100.005111
2093.000000	100.006528
2092.000000	100.007901
2091.000000	100.008947
2090.000000	100.009609
2089.000000	100.010021
2088.000000	100.010402
2087.000000	100.010831
2086.000000	100.011141
2085.000000	100.011231
2084.000000	100.011465
2083.000000	100.012415
2082.000000	100.014157
2081.000000	100.016060
2080.000000	100.017506
2079.000000	100.018526
2078.000000	100.019371
2077.000000	100.019879
2076.000000	100.019729
2075.000000	100.019100
2074.000000	100.018642
2073.000000	100.018735
2072.000000	100.019121
2071.000000	100.019371
2070.000000	100.019369
2069.000000	100.019219
2068.000000	100.018996
2067.000000	100.018807
2066.000000	100.018902
2065.000000	100.019452
2064.000000	100.020297
2063.000000	100.021139
2062.000000	100.021889
2061.000000	100.022650
2060.000000	100.023404
2059.000000	100.023975
2058.000000	100.024278
2057.000000	100.024377
2056.000000	100.024286
2055.000000	100.023972
2054.000000	100.023664
2053.000000	100.023864
2052.000000	100.024796
2051.000000	100.025958
2050.000000	100.026534
2049.000000	100.026227
2048.000000	100.025492
2047.000000	100.024984
2046.000000	100.024940
2045.000000	100.025171
2044.000000	100.025368
2043.000000	100.025209
2042.000000	100.024350
2041.000000	100.022695
2040.000000	100.020715
2039.000000	100.019226
2038.000000	100.018697
2037.000000	100.018858
2036.000000	100.018964
2035.000000	100.018462
2034.000000	100.017423
2033.000000	100.016392
2032.000000	100.015864
2031.000000	100.015863
2030.000000	100.015961
2029.000000	100.015695
2028.000000	100.015011
2027.000000	100.014269
2026.000000	100.013832
2025.000000	100.013730
2024.000000	100.013730
2023.000000	100.013640
2022.000000	100.013430
2021.000000	100.013087
2020.000000	100.012543
2019.000000	100.011804
2018.000000	100.011025
2017.000000	100.010358
2016.000000	100.009783
2015.000000	100.009196
2014.000000	100.008601
2013.000000	100.008120
2012.000000	100.007827
2011.000000	100.007644
2010.000000	100.007429
2009.000000	100.007106
2008.000000	100.006690
2007.000000	100.006235
2006.000000	100.005780
2005.000000	100.005342
2004.000000	100.004959
2003.000000	100.004706
2002.000000	100.004633
2001.000000	100.004684
2000.000000	100.004713
1999.000000	100.004602
1998.000000	100.004357
1997.000000	100.004089
1996.000000	100.003909
1995.000000	100.003812
1994.000000	100.003705
1993.000000	100.003526
1992.000000	100.003291
1991.000000	100.003050
1990.000000	100.002833
1989.000000	100.002647
1988.000000	100.002490
1987.000000	100.002333
1986.000000	100.002137
1985.000000	100.001891
1984.000000	100.001629
1983.000000	100.001387
1982.000000	100.001164
1981.000000	100.000940
1980.000000	100.000705
1979.000000	100.000470
1978.000000	100.000250
1977.000000	100.000055
1976.000000	99.999879
1975.000000	99.999707
1974.000000	99.999516
1973.000000	99.999287
1972.000000	99.999019
1971.000000	99.998727
1970.000000	99.998427
1969.000000	99.998132
1968.000000	99.997850
1967.000000	99.997581
1966.000000	99.997319
1965.000000	99.997050
1964.000000	99.996767
1963.000000	99.996467
1962.000000	99.996155
1961.000000	99.995836
1960.000000	99.995491
1959.000000	99.995096
1958.000000	99.994646
1957.000000	99.994185
1956.000000	99.993772
1955.000000	99.993426
1954.000000	99.993118
1953.000000	99.992826
1952.000000	99.992526
1951.000000	99.992186
1950.000000	99.991782
1949.000000	99.991319
1948.000000	99.990802
1947.000000	99.990184
1946.000000	99.989437
1945.000000	99.988691
1944.000000	99.988187
1943.000000	99.988037
1942.000000	99.988067
1941.000000	99.987982
1940.000000	99.987661
1939.000000	99.987159
1938.000000	99.986490
1937.000000	99.985574
1936.000000	99.984462
1935.000000	99.983442
1934.000000	99.982800
1933.000000	99.982492
1932.000000	99.982147
1931.000000	99.981487
1930.000000	99.980584
1929.000000	99.979701
1928.000000	99.979032
1927.000000	99.978515
1926.000000	99.978041
1925.000000	99.977597
1924.000000	99.977260
1923.000000	99.976974
1922.000000	99.976379
1921.000000	99.975148
1920.000000	99.973399
1919.000000	99.971649
1918.000000	99.970394
1917.000000	99.969709
1916.000000	99.969263
1915.000000	99.968652
1914.000000	99.967600
1913.000000	99.965997
1912.000000	99.964081
1911.000000	99.962466
1910.000000	99.961563
1909.000000	99.961002
1908.000000	99.959974
1907.000000	99.958159
1906.000000	99.956184
1905.000000	99.954733
1904.000000	99.953643
1903.000000	99.952121
1902.000000	99.949658
1901.000000	99.946623
1900.000000	99.943822
1899.000000	99.941796
1898.000000	99.940822
1897.000000	99.940923
1896.000000	99.941549
1895.000000	99.941654
1894.000000	99.940615
1893.000000	99.939031
1892.000000	99.938093
1891.000000	99.938144
1890.000000	99.938104
1889.000000	99.936539
1888.000000	99.933196
1887.000000	99.929138
1886.000000	99.925671
1885.000000	99.923445
1884.000000	99.922328
1883.000000	99.921924
1882.000000	99.922113
1881.000000	99.923082
1880.000000	99.924802
1879.000000	99.926618
1878.000000	99.927567
1877.000000	99.926934
1876.000000	99.924704
1875.000000	99.921815
1874.000000	99.919731
1873.000000	99.919408
1872.000000	99.920688
1871.000000	99.922658
1870.000000	99.924469
1869.000000	99.925767
1868.000000	99.926482
1867.000000	99.926605
1866.000000	99.926393
1865.000000	99.926275
1864.000000	99.926274
1863.000000	99.926060
1862.000000	99.925864
1861.000000	99.926857
1860.000000	99.929903
1859.000000	99.934143
1858.000000	99.937455
1857.000000	99.938500
1856.000000	99.937788
1855.000000	99.936873
1854.000000	99.936998
1853.000000	99.938487
1852.000000	99.940925
1851.000000	99.943343
1850.000000	99.944915
1849.000000	99.945535
1848.000000	99.945718
1847.000000	99.946115
1846.000000	99.947101
1845.000000	99.948760
1844.000000	99.950883
1843.000000	99.953048
1842.000000	99.954927
1841.000000	99.956666
1840.000000	99.958457
1839.000000	99.959857
1838.000000	99.960238
1837.000000	99.959606
1836.000000	99.958810
1835.000000	99.958713
1834.000000	99.959369
1833.000000	99.960232
1832.000000	99.960777
1831.000000	99.960802
1830.000000	99.960630
1829.000000	99.960826
1828.000000	99.961548
1827.000000	99.962497
1826.000000	99.963257
1825.000000	99.963627
1824.000000	99.963773
1823.000000	99.963971
1822.000000	99.964410
1821.000000	99.965296
1820.000000	99.966646
1819.000000	99.968001
1818.000000	99.968552
1817.000000	99.967784
1816.000000	99.966214
1815.000000	99.964908
1814.000000	99.964321
1813.000000	99.964200
1812.000000	99.964261
1811.000000	99.964677
1810.000000	99.965380
1809.000000	99.965552
1808.000000	99.964693
1807.000000	99.963604
1806.000000	99.963881
1805.000000	99.966554
1804.000000	99.971145
1803.000000	99.975914
1802.000000	99.979069
1801.000000	99.980110
1800.000000	99.979626
1799.000000	99.978379
1798.000000	99.976704
1797.000000	99.974788
1796.000000	99.972955
1795.000000	99.971415
1794.000000	99.970392
1793.000000	99.970693
1792.000000	99.973047
1791.000000	99.976638
1790.000000	99.979337
1789.000000	99.980117
1788.000000	99.980081
1787.000000	99.981102
1786.000000	99.984105
1785.000000	99.988411
1784.000000	99.992527
1783.000000	99.995493
1782.000000	99.997389
1781.000000	99.999165
1780.000000	100.001220
1779.000000	100.003246
1778.000000	100.004892
1777.000000	100.006396
1776.000000	100.008404
1775.000000	100.010810
1774.000000	100.012945
1773.000000	100.014207
1772.000000	100.014366
1771.000000	100.013718
1770.000000	100.013174
1769.000000	100.014268
1768.000000	100.018856
1767.000000	100.027194
1766.000000	100.036134
1765.000000	100.042093
1764.000000	100.044554
1763.000000	100.045850
1762.000000	100.048509
1761.000000	100.052500
1760.000000	100.055365
1759.000000	100.056406
1758.000000	100.057403
1757.000000	100.060392
1756.000000	100.065527
1755.000000	100.070904
1754.000000	100.075588
1753.000000	100.080597
1752.000000	100.086978
1751.000000	100.094544
1750.000000	100.102108
1749.000000	100.108440
1748.000000	100.114233
1747.000000	100.120912
1746.000000	100.128570
1745.000000	100.135810
1744.000000	100.140192
1743.000000	100.140191
1742.000000	100.136049
1741.000000	100.129354
1740.000000	100.122484
1739.000000	100.117431
1738.000000	100.113443
1737.000000	100.108150
1736.000000	100.100545
1735.000000	100.091648
1734.000000	100.084615
1733.000000	100.080443
1732.000000	100.075683
1731.000000	100.069865
1730.000000	100.065289
1729.000000	100.062005
1728.000000	100.057924
1727.000000	100.051501
1726.000000	100.044088
1725.000000	100.038714
1724.000000	100.036730
1723.000000	100.036873
1722.000000	100.036239
1721.000000	100.033108
1720.000000	100.028648
1719.000000	100.025615
1718.000000	100.025798
1717.000000	100.027607
1716.000000	100.028319
1715.000000	100.028008
1714.000000	100.027898
1713.000000	100.027790
1712.000000	100.027040
1711.000000	100.025741
1710.000000	100.024263
1709.000000	100.022472
1708.000000	100.019739
1707.000000	100.016087
1706.000000	100.013313
1705.000000	100.013253
1704.000000	100.015172
1703.000000	100.016399
1702.000000	100.015269
1701.000000	100.012071
1700.000000	100.009727
1699.000000	100.009306
1698.000000	100.008566
1697.000000	100.007368
1696.000000	100.006447
1695.000000	100.005974
1694.000000	100.005007
1693.000000	100.002924
1692.000000	100.000869
1691.000000	99.999682
1690.000000	99.998850
1689.000000	99.997339
1688.000000	99.994628
1687.000000	99.990950
1686.000000	99.987084
1685.000000	99.983573
1684.000000	99.981165
1683.000000	99.980126
1682.000000	99.979437
1681.000000	99.978582
1680.000000	99.977789
1679.000000	99.977160
1678.000000	99.976556
1677.000000	99.975798
1676.000000	99.974812
1675.000000	99.973795
1674.000000	99.972835
1673.000000	99.971747
1672.000000	99.970570
1671.000000	99.969636
1670.000000	99.968871
1669.000000	99.967682
1668.000000	99.965608
1667.000000	99.962916
1666.000000	99.960298
1665.000000	99.958147
1664.000000	99.956448
1663.000000	99.955175
1662.000000	99.954247
1661.000000	99.953347
1660.000000	99.951991
1659.000000	99.950007
1658.000000	99.947690
1657.000000	99.945327
1656.000000	99.942808
1655.000000	99.939918
1654.000000	99.937114
1653.000000	99.935686
1652.000000	99.935770
1651.000000	99.935882
1650.000000	99.935879
1649.000000	99.936126
1648.000000	99.935691
1647.000000	99.933676
1646.000000	99.930958
1645.000000	99.929146
1644.000000	99.928468
1643.000000	99.928068
1642.000000	99.927009
1641.000000	99.925273
1640.000000	99.923817
1639.000000	99.923411
1638.000000	99.923514
1637.000000	99.922177
1636.000000	99.918257
1635.000000	99.914000
1634.000000	99.912302
1633.000000	99.912403
1632.000000	99.912588
1631.000000	99.912307
1630.000000	99.911774
1629.000000	99.911246
1628.000000	99.910496
1627.000000	99.909447
1626.000000	99.908755
1625.000000	99.909278
1624.000000	99.910937
1623.000000	99.912692
1622.000000	99.913512
1621.000000	99.913409
1620.000000	99.913074
1619.000000	99.913194
1618.000000	99.913943
1617.000000	99.914561
1616.000000	99.914246
1615.000000	99.913601
1614.000000	99.914013
1613.000000	99.915946
1612.000000	99.918678
1611.000000	99.921097
1610.000000	99.922440
1609.000000	99.922559
1608.000000	99.921834
1607.000000	99.921342
1606.000000	99.922378
1605.000000	99.925410
1604.000000	99.929457
1603.000000	99.933122
1602.000000	99.935881
1601.000000	99.938000
1600.000000	99.939888
1599.000000	99.941857
1598.000000	99.944111
1597.000000	99.946397
1596.000000	99.947979
1595.000000	99.948453
1594.000000	99.948389
1593.000000	99.948863
1592.000000	99.950328
1591.000000	99.952415
1590.000000	99.954558
1589.000000	99.956448
1588.000000	99.957967
1587.000000	99.959056
1586.000000	99.959788
1585.000000	99.960465
1584.000000	99.961526
1583.000000	99.963226
1582.000000	99.965480
1581.000000	99.967787
1580.000000	99.969593
1579.000000	99.970798
1578.000000	99.971834
1577.000000	99.973152
1576.000000	99.974664
1575.000000	99.975973
1574.000000	99.977071
1573.000000	99.978221
1572.000000	99.979340
1571.000000	99.980034
1570.000000	99.980248
1569.000000	99.980673
1568.000000	99.981941
1567.000000	99.983864
1566.000000	99.985999
1565.000000	99.987906
1564.000000	99.989206
1563.000000	99.989577
1562.000000	99.989100
1561.000000	99.988289
1560.000000	99.988349
1559.000000	99.990726
1558.000000	99.994245
1557.000000	99.996421
1556.000000	99.997052
1555.000000	99.996871
1554.000000	99.996247
1553.000000	99.995444
1552.000000	99.994908
1551.000000	99.995661
1550.000000	99.998253
1549.000000	100.001431
1548.000000	100.003492
1547.000000	100.004273
1546.000000	100.005126
1545.000000	100.006918
1544.000000	100.008932
1543.000000	100.009920
1542.000000	100.009573
1541.000000	100.007595
1540.000000	100.003435
1539.000000	99.998540
1538.000000	99.995373
1537.000000	99.993728
1536.000000	99.992312
1535.000000	99.990246
1534.000000	99.988106
1533.000000	99.987826
1532.000000	99.989477
1531.000000	99.991174
1530.000000	99.991698
1529.000000	99.991211
1528.000000	99.990849
1527.000000	99.991800
1526.000000	99.994167
1525.000000	99.996539
1524.000000	99.997116
1523.000000	99.995464
1522.000000	99.993092
1521.000000	99.992550
1520.000000	99.994181
1519.000000	99.995655
1518.000000	99.995668
1517.000000	99.994884
1516.000000	99.994715
1515.000000	99.995623
1514.000000	99.996922
1513.000000	99.998191
1512.000000	99.999447
1511.000000	100.000811
1510.000000	100.002098
1509.000000	100.002883
1508.000000	100.002576
1507.000000	100.001268
1506.000000	100.000508
1505.000000	100.001208
1504.000000	100.002509
1503.000000	100.003776
1502.000000	100.004830
1501.000000	100.005693
1500.000000	100.006599
1499.000000	100.007593
1498.000000	100.008494
1497.000000	100.009275
1496.000000	100.010358
1495.000000	100.012136
1494.000000	100.014601
1493.000000	100.018098
1492.000000	100.022910
1491.000000	100.028010
1490.000000	100.031058
1489.000000	100.030963
1488.000000	100.029518
1487.000000	100.029197
1486.000000	100.030279
1485.000000	100.031456
1484.000000	100.031803
1483.000000	100.031484
1482.000000	100.031900
1481.000000	100.034020
1480.000000	100.037282
1479.000000	100.040205
1478.000000	100.041982
1477.000000	100.042745
1476.000000	100.042856
1475.000000	100.042252
1474.000000	100.040864
1473.000000	100.040311
1472.000000	100.042885
1471.000000	100.048440
1470.000000	100.054327
1469.000000	100.058853
1468.000000	100.062008
1467.000000	100.064472
1466.000000	100.066923
1465.000000	100.070162
1464.000000	100.074506
1463.000000	100.079077
1462.000000	100.082336
1461.000000	100.083085
1460.000000	100.081659
1459.000000	100.079968
1458.000000	100.079889
1457.000000	100.079757
1456.000000	100.076406
1455.000000	100.070317
1454.000000	100.064733
1453.000000	100.061558
1452.000000	100.059587
1451.000000	100.057452
1450.000000	100.055215
1449.000000	100.053260
1448.000000	100.051055
1447.000000	100.048040
1446.000000	100.044939
1445.000000	100.043678
1444.000000	100.044938
1443.000000	100.047665
1442.000000	100.049653
1441.000000	100.049061
1440.000000	100.045863
1439.000000	100.041793
1438.000000	100.039068
1437.000000	100.038326
1436.000000	100.037918
1435.000000	100.035352
1434.000000	100.030796
1433.000000	100.026521
1432.000000	100.024047
1431.000000	100.023279
1430.000000	100.023189
1429.000000	100.022723
1428.000000	100.021680
1427.000000	100.020450
1426.000000	100.019469
1425.000000	100.019384
1424.000000	100.020318
1423.000000	100.022089
1422.000000	100.024620
1421.000000	100.027961
1420.000000	100.031418
1419.000000	100.033078
1418.000000	100.031634
1417.000000	100.027860
1416.000000	100.024112
1415.000000	100.022427
1414.000000	100.023387
1413.000000	100.026360
1412.000000	100.030146
1411.000000	100.033554
1410.000000	100.035753
1409.000000	100.036781
1408.000000	100.038094
1407.000000	100.041492
1406.000000	100.046654
1405.000000	100.050773
1404.000000	100.051355
1403.000000	100.049711
1402.000000	100.049439
1401.000000	100.052198
1400.000000	100.056372
1399.000000	100.059561
1398.000000	100.062079
1397.000000	100.066025
1396.000000	100.071760
1395.000000	100.077023
1394.000000	100.080126
1393.000000	100.082409
1392.000000	100.085842
1391.000000	100.090850
1390.000000	100.096712
1389.000000	100.102996
1388.000000	100.109544
1387.000000	100.115085
1386.000000	100.117552
1385.000000	100.116760
1384.000000	100.115018
1383.000000	100.114847
1382.000000	100.116886
1381.000000	100.120030
1380.000000	100.123402
1379.000000	100.127132
1378.000000	100.131335
1377.000000	100.134968
1376.000000	100.136310
1375.000000	100.134587
1374.000000	100.131123
1373.000000	100.128044
1372.000000	100.125660
1371.000000	100.122988
1370.000000	100.119925
1369.000000	100.117664
1368.000000	100.116884
1367.000000	100.116956
1366.000000	100.117107
1365.000000	100.117431
1364.000000	100.118310
1363.000000	100.119659
1362.000000	100.121281
1361.000000	100.123237
1360.000000	100.125360
1359.000000	100.127071
1358.000000	100.128112
1357.000000	100.129030
1356.000000	100.130325
1355.000000	100.131517
1354.000000	100.131806
1353.000000	100.131365
1352.000000	100.131027
1351.000000	100.130817
1350.000000	100.129733
1349.000000	100.127508
1348.000000	100.125309
1347.000000	100.124670
1346.000000	100.125884
1345.000000	100.127866
1344.000000	100.129256
1343.000000	100.129584
1342.000000	100.129442
1341.000000	100.129701
1340.000000	100.130540
1339.000000	100.131308
1338.000000	100.131486
1337.000000	100.131388
1336.000000	100.131575
1335.000000	100.131947
1334.000000	100.131891
1333.000000	100.131177
1332.000000	100.130235
1331.000000	100.129557
1330.000000	100.129247
1329.000000	100.129283
1328.000000	100.129770
1327.000000	100.130713
1326.000000	100.131783
1325.000000	100.132546
1324.000000	100.132623
1323.000000	100.131650
1322.000000	100.129381
1321.000000	100.126146
1320.000000	100.123089
1319.000000	100.121652
1318.000000	100.122664
1317.000000	100.125887
1316.000000	100.130083
1315.000000	100.133406
1314.000000	100.134364
1313.000000	100.132927
1312.000000	100.130731
1311.000000	100.129577
1310.000000	100.129612
1309.000000	100.129621
1308.000000	100.128913
1307.000000	100.128287
1306.000000	100.128944
1305.000000	100.130951
1304.000000	100.133159
1303.000000	100.134409
1302.000000	100.134350
1301.000000	100.133230
1300.000000	100.131392
1299.000000	100.129178
1298.000000	100.127062
1297.000000	100.125546
1296.000000	100.124908
1295.000000	100.125089
1294.000000	100.125901
1293.000000	100.127264
1292.000000	100.129046
1291.000000	100.130716
1290.000000	100.131513
1289.000000	100.131208
1288.000000	100.130392
1287.000000	100.129704
1286.000000	100.129139
1285.000000	100.128491
1284.000000	100.128000
1283.000000	100.127950
1282.000000	100.128054
1281.000000	100.127994
1280.000000	100.128106
1279.000000	100.128512
1278.000000	100.128124
1277.000000	100.126019
1276.000000	100.123598
1275.000000	100.123425
1274.000000	100.125518
1273.000000	100.126803
1272.000000	100.125330
1271.000000	100.123258
1270.000000	100.124034
1269.000000	100.127807
1268.000000	100.131619
1267.000000	100.133414
1266.000000	100.133868
1265.000000	100.134207
1264.000000	100.133875
1263.000000	100.131192
1262.000000	100.125821
1261.000000	100.120011
1260.000000	100.117076
1259.000000	100.118235
1258.000000	100.121151
1257.000000	100.122256
1256.000000	100.120327
1255.000000	100.116969
1254.000000	100.113942
1253.000000	100.111295
1252.000000	100.108168
1251.000000	100.103770
1250.000000	100.097140
1249.000000	100.087870
1248.000000	100.078056
1247.000000	100.071707
1246.000000	100.070476
1245.000000	100.071084
1244.000000	100.068663
1243.000000	100.061902
1242.000000	100.053625
1241.000000	100.047089
1240.000000	100.043170
1239.000000	100.040598
1238.000000	100.037398
1237.000000	100.032256
1236.000000	100.025535
1235.000000	100.018998
1234.000000	100.013974
1233.000000	100.010063
1232.000000	100.005821
1231.000000	99.999859
1230.000000	99.991018
1229.000000	99.978835
1228.000000	99.964519
1227.000000	99.950118
1226.000000	99.935827
1225.000000	99.919526
1224.000000	99.899914
1223.000000	99.878411
1222.000000	99.856696
1221.000000	99.834199
1220.000000	99.809914
1219.000000	99.784912
1218.000000	99.760459
1217.000000	99.734669
1216.000000	99.703882
1215.000000	99.667178
1214.000000	99.627377
1213.000000	99.587681
1212.000000	99.549277
1211.000000	99.512335
1210.000000	99.477257
1209.000000	99.444049
1208.000000	99.411338
1207.000000	99.376544
1206.000000	99.337464
1205.000000	99.294621
1204.000000	99.251848
1203.000000	99.212752
1202.000000	99.176202
1201.000000	99.137638
1200.000000	99.095471
1199.000000	99.053240
1198.000000	99.013858
1197.000000	98.974862
1196.000000	98.932076
1195.000000	98.885694
1194.000000	98.839728
1193.000000	98.796747
1192.000000	98.755957
1191.000000	98.715666
1190.000000	98.674944
1189.000000	98.632890
1188.000000	98.588132
1187.000000	98.539298
1186.000000	98.485566
1185.000000	98.427652
1184.000000	98.368738
1183.000000	98.312689
1182.000000	98.260036
1181.000000	98.207116
1180.000000	98.150210
1179.000000	98.088839
1178.000000	98.024153
1177.000000	97.956449
1176.000000	97.885925
1175.000000	97.813923
1174.000000	97.741803
1173.000000	97.670296
1172.000000	97.600839
1171.000000	97.534880
1170.000000	97.470753
1169.000000	97.404856
1168.000000	97.338300
1167.000000	97.279008
1166.000000	97.234236
1165.000000	97.203921
1164.000000	97.184509
1163.000000	97.176700
1162.000000	97.185279
1161.000000	97.211542
1160.000000	97.247887
1159.000000	97.279736
1158.000000	97.293237
1157.000000	97.283226
1156.000000	97.255139
1155.000000	97.218711
1154.000000	97.179130
1153.000000	97.135122
1152.000000	97.084807
1151.000000	97.029713
1150.000000	96.972307
1149.000000	96.913823
1148.000000	96.856830
1147.000000	96.806132
1146.000000	96.763432
1145.000000	96.723434
1144.000000	96.678703
1143.000000	96.627295
1142.000000	96.573507
1141.000000	96.522578
1140.000000	96.476631
1139.000000	96.434208
1138.000000	96.391548
1137.000000	96.345377
1136.000000	96.296089
1135.000000	96.247404
1134.000000	96.202105
1133.000000	96.159355
1132.000000	96.116550
1131.000000	96.071937
1130.000000	96.025160
1129.000000	95.977377
1128.000000	95.931115
1127.000000	95.887838
1126.000000	95.845589
1125.000000	95.801400
1124.000000	95.755625
1123.000000	95.710951
1122.000000	95.667649
1121.000000	95.623412
1120.000000	95.577750
1119.000000	95.532645
1118.000000	95.488673
1117.000000	95.444722
1116.000000	95.402052
1115.000000	95.363773
1114.000000	95.329063
1113.000000	95.292909
1112.000000	95.252951
1111.000000	95.211373
1110.000000	95.169174
1109.000000	95.124674
1108.000000	95.079603
1107.000000	95.040329
1106.000000	95.009651
1105.000000	94.982306
1104.000000	94.951247
1103.000000	94.913741
1102.000000	94.869702
1101.000000	94.820255
1100.000000	94.770786
1099.000000	94.729313
1098.000000	94.697749
1097.000000	94.669166
1096.000000	94.636420
1095.000000	94.598809
1094.000000	94.558084
1093.000000	94.513831
1092.000000	94.466481
1091.000000	94.420095
1090.000000	94.378541
1089.000000	94.342427
1088.000000	94.311507
1087.000000	94.285281
1086.000000	94.259690
1085.000000	94.229030
1084.000000	94.193510
1083.000000	94.159707
1082.000000	94.131502
1081.000000	94.105711
1080.000000	94.077994
1079.000000	94.046757
1078.000000	94.009747
1077.000000	93.964514
1076.000000	93.915522
1075.000000	93.873579
1074.000000	93.843126
1073.000000	93.815037
1072.000000	93.775795
1071.000000	93.718947
1070.000000	93.645471
1069.000000	93.559004
1068.000000	93.464269
1067.000000	93.365341
1066.000000	93.261904
1065.000000	93.151282
1064.000000	93.036298
1063.000000	92.926126
1062.000000	92.827168
1061.000000	92.738229
1060.000000	92.655969
1059.000000	92.578413
1058.000000	92.501671
1057.000000	92.420665
1056.000000	92.335591
1055.000000	92.250949
1054.000000	92.166357
1053.000000	92.076025
1052.000000	91.979506
1051.000000	91.883662
1050.000000	91.790272
1049.000000	91.692090
1048.000000	91.585659
1047.000000	91.476657
1046.000000	91.367714
1045.000000	91.252234
1044.000000	91.126119
1043.000000	90.996648
1042.000000	90.873963
1041.000000	90.760519
1040.000000	90.653472
1039.000000	90.550557
1038.000000	90.449456
1037.000000	90.348483
1036.000000	90.251984
1035.000000	90.168302
1034.000000	90.099033
1033.000000	90.037342
1032.000000	89.979498
1031.000000	89.929540
1030.000000	89.888987
1029.000000	89.850967
1028.000000	89.809787
1027.000000	89.769363
1026.000000	89.737153
1025.000000	89.715399
1024.000000	89.701397
1023.000000	89.689927
1022.000000	89.672823
1021.000000	89.643344
1020.000000	89.604433
1019.000000	89.566936
1018.000000	89.537652
1017.000000	89.514727
1016.000000	89.494722
1015.000000	89.476053
1014.000000	89.454607
1013.000000	89.425244
1012.000000	89.390445
1011.000000	89.359590
1010.000000	89.337256
1009.000000	89.319430
1008.000000	89.302452
1007.000000	89.287324
1006.000000	89.273532
1005.000000	89.257504
1004.000000	89.240109
1003.000000	89.227832
1002.000000	89.223922
1001.000000	89.225427
1000.000000	89.230203
999.000000	89.238757
998.000000	89.247899
997.000000	89.251650
996.000000	89.250870
995.000000	89.253715
994.000000	89.264284
993.000000	89.278623
992.000000	89.293388
991.000000	89.309883
990.000000	89.327618
989.000000	89.342954
988.000000	89.356905
987.000000	89.375983
986.000000	89.402741
985.000000	89.433636
984.000000	89.468387
983.000000	89.512647
982.000000	89.568110
981.000000	89.628003
980.000000	89.685834
979.000000	89.742009
978.000000	89.799586
977.000000	89.860751
976.000000	89.929528
975.000000	90.010194
974.000000	90.100311
973.000000	90.192108
972.000000	90.282910
971.000000	90.377537
970.000000	90.478877
969.000000	90.583119
968.000000	90.685860
967.000000	90.786064
966.000000	90.882840
965.000000	90.975601
964.000000	91.068773
963.000000	91.168837
962.000000	91.274689
961.000000	91.377800
960.000000	91.473574
959.000000	91.565559
958.000000	91.657016
957.000000	91.745713
956.000000	91.829226
955.000000	91.908362
954.000000	91.983086
953.000000	92.051882
952.000000	92.117409
951.000000	92.185929
950.000000	92.258243
949.000000	92.327579
948.000000	92.389209
947.000000	92.445646
946.000000	92.499773
945.000000	92.549450
944.000000	92.592674
943.000000	92.632141
942.000000	92.670477
941.000000	92.705903
940.000000	92.736959
939.000000	92.767384
938.000000	92.801929
937.000000	92.840161
936.000000	92.877874
935.000000	92.912312
934.000000	92.943745
933.000000	92.974355
932.000000	93.007403
931.000000	93.045226
930.000000	93.086653
929.000000	93.128201
928.000000	93.167851
927.000000	93.205352
926.000000	93.239897
925.000000	93.271217
924.000000	93.302431
923.000000	93.337886
922.000000	93.378270
921.000000	93.420904
920.000000	93.463524
919.000000	93.504130
918.000000	93.539289
917.000000	93.567449
916.000000	93.592311
915.000000	93.618202
914.000000	93.644552
913.000000	93.670418
912.000000	93.701264
911.000000	93.743739
910.000000	93.796039
909.000000	93.851919
908.000000	93.913089
907.000000	93.988078
906.000000	94.078596
905.000000	94.176204
904.000000	94.273624
903.000000	94.371172
902.000000	94.470523
901.000000	94.570343
900.000000	94.670427
899.000000	94.772918
898.000000	94.876643
897.000000	94.976141
896.000000	95.068638
895.000000	95.157200
894.000000	95.246150
893.000000	95.338188
892.000000	95.435640
891.000000	95.538210
890.000000	95.639362
889.000000	95.731763
888.000000	95.816937
887.000000	95.902956
886.000000	95.991917
885.000000	96.076790
884.000000	96.151868
883.000000	96.218717
882.000000	96.280204
881.000000	96.336982
880.000000	96.393200
879.000000	96.457303
878.000000	96.531588
877.000000	96.607490
876.000000	96.676729
875.000000	96.741450
874.000000	96.808393
873.000000	96.878628
872.000000	96.948859
871.000000	97.018635
870.000000	97.090681
869.000000	97.166941
868.000000	97.248299
867.000000	97.334919
866.000000	97.422729
865.000000	97.502938
864.000000	97.570441
863.000000	97.631878
862.000000	97.700992
861.000000	97.784841
860.000000	97.876510
859.000000	97.961785
858.000000	98.032131
857.000000	98.091445
856.000000	98.150658
855.000000	98.215363
854.000000	98.279491
853.000000	98.332879
852.000000	98.373918
851.000000	98.411576
850.000000	98.454899
849.000000	98.504148
848.000000	98.553684
847.000000	98.599823
846.000000	98.642948
845.000000	98.683880
844.000000	98.720649
843.000000	98.748467
842.000000	98.762602
841.000000	98.763166
840.000000	98.757383
839.000000	98.754181
838.000000	98.754898
837.000000	98.751790
836.000000	98.737605
835.000000	98.714424
834.000000	98.691272
833.000000	98.675465
832.000000	98.668935
831.000000	98.670369
830.000000	98.676505
829.000000	98.682099
828.000000	98.683148
827.000000	98.682035
826.000000	98.687255
825.000000	98.705845
824.000000	98.735996
823.000000	98.767602
822.000000	98.789921
821.000000	98.798547
820.000000	98.795801
819.000000	98.786251
818.000000	98.772887
817.000000	98.756264
816.000000	98.734444
815.000000	98.702321
814.000000	98.652628
813.000000	98.579583
812.000000	98.481177
811.000000	98.356852
810.000000	98.203985
809.000000	98.018342
808.000000	97.797534
807.000000	97.543137
806.000000	97.261203
805.000000	96.963078
804.000000	96.663889
803.000000	96.375985
802.000000	96.104758
801.000000	95.855846
800.000000	95.644484
799.000000	95.489159
798.000000	95.394850
797.000000	95.349988
796.000000	95.340115
795.000000	95.355528
794.000000	95.385141
793.000000	95.414997
792.000000	95.438386
791.000000	95.459537
790.000000	95.482165
789.000000	95.500185
788.000000	95.503236
787.000000	95.485309
786.000000	95.444365
785.000000	95.379733
784.000000	95.294851
783.000000	95.198351
782.000000	95.098230
781.000000	94.998614
780.000000	94.905118
779.000000	94.828007
778.000000	94.775624
777.000000	94.749047
776.000000	94.747098
775.000000	94.771984
774.000000	94.825484
773.000000	94.902470
772.000000	94.991430
771.000000	95.079835
770.000000	95.158816
769.000000	95.226271
768.000000	95.286690
767.000000	95.345437
766.000000	95.403029
765.000000	95.457525
764.000000	95.510485
763.000000	95.565041
762.000000	95.618782
761.000000	95.664924
760.000000	95.701466
759.000000	95.733656
758.000000	95.766688
757.000000	95.802109
756.000000	95.842726
755.000000	95.893899
754.000000	95.956094
753.000000	96.021102
752.000000	96.079693
751.000000	96.130692
750.000000	96.180724
749.000000	96.237546
748.000000	96.304530
747.000000	96.378439
746.000000	96.451563
745.000000	96.518883
744.000000	96.583306
743.000000	96.650953
742.000000	96.722337
741.000000	96.792606
740.000000	96.859871
739.000000	96.928037
738.000000	97.000893
737.000000	97.077929
736.000000	97.156367
735.000000	97.232513
734.000000	97.300623
733.000000	97.355633
732.000000	97.398925
731.000000	97.438163
730.000000	97.480040
729.000000	97.525152
728.000000	97.569508
727.000000	97.607864
726.000000	97.636625
725.000000	97.658153
724.000000	97.682169
723.000000	97.717992
722.000000	97.764479
721.000000	97.811741
720.000000	97.853385
719.000000	97.892522
718.000000	97.934687
717.000000	97.979984
716.000000	98.024143
715.000000	98.063119
714.000000	98.095393
713.000000	98.123478
712.000000	98.153918
711.000000	98.191646
710.000000	98.232953
709.000000	98.267666
708.000000	98.289380
707.000000	98.300296
706.000000	98.305370
705.000000	98.305072
704.000000	98.294345
703.000000	98.264824
702.000000	98.207401
701.000000	98.116170
700.000000	97.990538
699.000000	97.832105
698.000000	97.644218
697.000000	97.442475
696.000000	97.262712
695.000000	97.145340
694.000000	97.107355
693.000000	97.135120
692.000000	97.203219
691.000000	97.292891
690.000000	97.392817
689.000000	97.494836
688.000000	97.596954
687.000000	97.702868
686.000000	97.810010
685.000000	97.903872
684.000000	97.972508
683.000000	98.023096
682.000000	98.076889
681.000000	98.148525
680.000000	98.233677
679.000000	98.315345
678.000000	98.378904
677.000000	98.422140
676.000000	98.454535
675.000000	98.488015
674.000000	98.526522
673.000000	98.564689
672.000000	98.597142
671.000000	98.625992
670.000000	98.657790
669.000000	98.696359
668.000000	98.736932
667.000000	98.768503
666.000000	98.789954
665.000000	98.811346
664.000000	98.840274
663.000000	98.877632
662.000000	98.917960
661.000000	98.954789
660.000000	98.987540
659.000000	99.019273
658.000000	99.050068
657.000000	99.077112
656.000000	99.098342
655.000000	99.111700
654.000000	99.115177
653.000000	99.114201
652.000000	99.124306
651.000000	99.154705
650.000000	99.190841
649.000000	99.207908
648.000000	99.203262
647.000000	99.201368
646.000000	99.223040
645.000000	99.263884
644.000000	99.309995
643.000000	99.359668
642.000000	99.417819
641.000000	99.480723
640.000000	99.539607
639.000000	99.591446
638.000000	99.633609
637.000000	99.655122
636.000000	99.649253
635.000000	99.631808
634.000000	99.630577
633.000000	99.656332
632.000000	99.699635
631.000000	99.753012
630.000000	99.819285
629.000000	99.896612
628.000000	99.968047
627.000000	100.012269
626.000000	100.021314
625.000000	100.006255
624.000000	99.990858
623.000000	100.001014
622.000000	100.047256
621.000000	100.112488
620.000000	100.166016
619.000000	100.191699
618.000000	100.196069
617.000000	100.188757
616.000000	100.167911
615.000000	100.133242
614.000000	100.098551
613.000000	100.079658
612.000000	100.081322
611.000000	100.103346
610.000000	100.144981
609.000000	100.192756
608.000000	100.214322
607.000000	100.181720
606.000000	100.103918
605.000000	100.021570
604.000000	99.963222
603.000000	99.923680
602.000000	99.891888
601.000000	99.884568
600.000000	99.933174
599.000000	100.032636
598.000000	100.120864
597.000000	100.133257
596.000000	100.069272
595.000000	99.989341
594.000000	99.947775
593.000000	99.942102
592.000000	99.936667
591.000000	99.914616
590.000000	99.888319
589.000000	99.871688
588.000000	99.864608
587.000000	99.861817
586.000000	99.864816
585.000000	99.887271
584.000000	99.946186
583.000000	100.030855
582.000000	100.085051
581.000000	100.056183
580.000000	99.968970
579.000000	99.915751
578.000000	99.952625
577.000000	100.039975
576.000000	100.110195
575.000000	100.150210
574.000000	100.180367
573.000000	100.192470
572.000000	100.165622
571.000000	100.122790
570.000000	100.114061
569.000000	100.144629
568.000000	100.165054
567.000000	100.134530
566.000000	100.060686
565.000000	99.973020
564.000000	99.882216
563.000000	99.775435
562.000000	99.634636
561.000000	99.462646
560.000000	99.297908
559.000000	99.180673
558.000000	99.090416
557.000000	98.961224
556.000000	98.781810
555.000000	98.621323
554.000000	98.512608
553.000000	98.378189
552.000000	98.155015
551.000000	97.932160
550.000000	97.862524
