PE IR       SUBTECH     SPECTRUM    ASCII       PEDS        4.00        
   -1
BH1 8-6 22 50_1.asc
24/05/14
12:54:34.00
24/05/14
12:55:10.00
Administrator
?品 040 用? Administrator 日期 Tuesday, May 14 2024
550.000000
#HDR
-1
-1
#GR
cm-1
%T
1.0
0.0
4000.000000
-1.000000
3451
8
101.363032
76.510758
#DATA
4000.000000	100.921268
3999.000000	100.919695
3998.000000	100.918116
3997.000000	100.916813
3996.000000	100.915719
3995.000000	100.914652
3994.000000	100.913679
3993.000000	100.913097
3992.000000	100.913078
3991.000000	100.913470
3990.000000	100.913910
3989.000000	100.914086
3988.000000	100.913905
3987.000000	100.913413
3986.000000	100.912679
3985.000000	100.911773
3984.000000	100.910797
3983.000000	100.909884
3982.000000	100.909144
3981.000000	100.908644
3980.000000	100.908444
3979.000000	100.908587
3978.000000	100.908974
3977.000000	100.909294
3976.000000	100.909147
3975.000000	100.908331
3974.000000	100.906989
3973.000000	100.905554
3972.000000	100.904504
3971.000000	100.904091
3970.000000	100.904242
3969.000000	100.904614
3968.000000	100.904833
3967.000000	100.904775
3966.000000	100.904592
3965.000000	100.904555
3964.000000	100.904809
3963.000000	100.905218
3962.000000	100.905373
3961.000000	100.904875
3960.000000	100.903675
3959.000000	100.902166
3958.000000	100.900896
3957.000000	100.900163
3956.000000	100.899895
3955.000000	100.899829
3954.000000	100.899784
3953.000000	100.899750
3952.000000	100.899759
3951.000000	100.899766
3950.000000	100.899683
3949.000000	100.899516
3948.000000	100.899371
3947.000000	100.899258
3946.000000	100.899023
3945.000000	100.898507
3944.000000	100.897720
3943.000000	100.896860
3942.000000	100.896153
3941.000000	100.895758
3940.000000	100.895822
3939.000000	100.896426
3938.000000	100.897269
3937.000000	100.897558
3936.000000	100.896639
3935.000000	100.894742
3934.000000	100.893038
3933.000000	100.892710
3932.000000	100.893957
3931.000000	100.895820
3930.000000	100.896862
3929.000000	100.896132
3928.000000	100.893760
3927.000000	100.890805
3926.000000	100.888220
3925.000000	100.885911
3924.000000	100.883301
3923.000000	100.880663
3922.000000	100.879116
3921.000000	100.879252
3920.000000	100.880426
3919.000000	100.881739
3918.000000	100.883199
3917.000000	100.885205
3916.000000	100.887310
3915.000000	100.888323
3914.000000	100.887474
3913.000000	100.885131
3912.000000	100.882560
3911.000000	100.881031
3910.000000	100.880922
3909.000000	100.881453
3908.000000	100.881433
3907.000000	100.880383
3906.000000	100.879057
3905.000000	100.878629
3904.000000	100.879453
3903.000000	100.880929
3902.000000	100.882391
3901.000000	100.883727
3900.000000	100.884964
3899.000000	100.885934
3898.000000	100.886530
3897.000000	100.886933
3896.000000	100.887321
3895.000000	100.887694
3894.000000	100.888058
3893.000000	100.888649
3892.000000	100.889703
3891.000000	100.891033
3890.000000	100.892125
3889.000000	100.892736
3888.000000	100.893125
3887.000000	100.893689
3886.000000	100.894487
3885.000000	100.895312
3884.000000	100.896041
3883.000000	100.896723
3882.000000	100.897470
3881.000000	100.898319
3880.000000	100.899210
3879.000000	100.900063
3878.000000	100.900847
3877.000000	100.901589
3876.000000	100.902351
3875.000000	100.903172
3874.000000	100.904015
3873.000000	100.904806
3872.000000	100.905543
3871.000000	100.906304
3870.000000	100.907107
3869.000000	100.907863
3868.000000	100.908501
3867.000000	100.909078
3866.000000	100.909693
3865.000000	100.910337
3864.000000	100.910928
3863.000000	100.911436
3862.000000	100.911899
3861.000000	100.912367
3860.000000	100.912904
3859.000000	100.913558
3858.000000	100.914259
3857.000000	100.914797
3856.000000	100.915110
3855.000000	100.915503
3854.000000	100.916141
3853.000000	100.916769
3852.000000	100.917209
3851.000000	100.917534
3850.000000	100.917834
3849.000000	100.918016
3848.000000	100.917892
3847.000000	100.917436
3846.000000	100.916835
3845.000000	100.916430
3844.000000	100.916477
3843.000000	100.916972
3842.000000	100.917656
3841.000000	100.918244
3840.000000	100.918631
3839.000000	100.918859
3838.000000	100.919042
3837.000000	100.919265
3836.000000	100.919541
3835.000000	100.919816
3834.000000	100.920035
3833.000000	100.920151
3832.000000	100.920065
3831.000000	100.919667
3830.000000	100.918975
3829.000000	100.918285
3828.000000	100.918054
3827.000000	100.918498
3826.000000	100.919296
3825.000000	100.919808
3824.000000	100.919802
3823.000000	100.919677
3822.000000	100.919894
3821.000000	100.920306
3820.000000	100.920401
3819.000000	100.919890
3818.000000	100.919079
3817.000000	100.918656
3816.000000	100.918721
3815.000000	100.918755
3814.000000	100.918612
3813.000000	100.918697
3812.000000	100.919168
3811.000000	100.919530
3810.000000	100.919248
3809.000000	100.918671
3808.000000	100.918862
3807.000000	100.920117
3806.000000	100.921320
3805.000000	100.921214
3804.000000	100.919761
3803.000000	100.918331
3802.000000	100.917950
3801.000000	100.917833
3800.000000	100.916846
3799.000000	100.914963
3798.000000	100.913061
3797.000000	100.911771
3796.000000	100.910783
3795.000000	100.909520
3794.000000	100.908010
3793.000000	100.906723
3792.000000	100.905802
3791.000000	100.904902
3790.000000	100.903767
3789.000000	100.902728
3788.000000	100.902604
3787.000000	100.903990
3786.000000	100.906536
3785.000000	100.908645
3784.000000	100.908338
3783.000000	100.905038
3782.000000	100.900292
3781.000000	100.896482
3780.000000	100.894640
3779.000000	100.894229
3778.000000	100.894638
3777.000000	100.896094
3776.000000	100.898920
3775.000000	100.902000
3774.000000	100.902958
3773.000000	100.900787
3772.000000	100.897479
3771.000000	100.895563
3770.000000	100.894644
3769.000000	100.892301
3768.000000	100.887972
3767.000000	100.884499
3766.000000	100.885160
3765.000000	100.889565
3764.000000	100.893973
3763.000000	100.896287
3762.000000	100.898052
3761.000000	100.900728
3760.000000	100.902808
3759.000000	100.902917
3758.000000	100.902602
3757.000000	100.903729
3756.000000	100.906685
3755.000000	100.911538
3754.000000	100.918293
3753.000000	100.924274
3752.000000	100.924515
3751.000000	100.919861
3750.000000	100.917461
3749.000000	100.918573
3748.000000	100.916295
3747.000000	100.907277
3746.000000	100.900508
3745.000000	100.904492
3744.000000	100.910959
3743.000000	100.909461
3742.000000	100.901428
3741.000000	100.892532
3740.000000	100.884276
3739.000000	100.875205
3738.000000	100.866664
3737.000000	100.860485
3736.000000	100.853616
3735.000000	100.843030
3734.000000	100.832863
3733.000000	100.829965
3732.000000	100.834433
3731.000000	100.839434
3730.000000	100.838969
3729.000000	100.832844
3728.000000	100.824762
3727.000000	100.816480
3726.000000	100.806237
3725.000000	100.793415
3724.000000	100.780621
3723.000000	100.771289
3722.000000	100.766709
3721.000000	100.765256
3720.000000	100.763622
3719.000000	100.759162
3718.000000	100.750993
3717.000000	100.738857
3716.000000	100.723242
3715.000000	100.706668
3714.000000	100.692777
3713.000000	100.682631
3712.000000	100.673235
3711.000000	100.661421
3710.000000	100.646158
3709.000000	100.627448
3708.000000	100.605826
3707.000000	100.582063
3706.000000	100.557132
3705.000000	100.532610
3704.000000	100.510590
3703.000000	100.492933
3702.000000	100.480418
3701.000000	100.471520
3700.000000	100.462244
3699.000000	100.449237
3698.000000	100.433229
3697.000000	100.417906
3696.000000	100.406863
3695.000000	100.402649
3694.000000	100.405827
3693.000000	100.413292
3692.000000	100.418363
3691.000000	100.415270
3690.000000	100.405766
3689.000000	100.397905
3688.000000	100.396509
3687.000000	100.399972
3686.000000	100.405618
3685.000000	100.411863
3684.000000	100.416457
3683.000000	100.416815
3682.000000	100.413385
3681.000000	100.408742
3680.000000	100.401713
3679.000000	100.386878
3678.000000	100.363717
3677.000000	100.342185
3676.000000	100.331802
3675.000000	100.330009
3674.000000	100.326676
3673.000000	100.315825
3672.000000	100.300960
3671.000000	100.288306
3670.000000	100.277677
3669.000000	100.265199
3668.000000	100.248913
3667.000000	100.229081
3666.000000	100.207791
3665.000000	100.188047
3664.000000	100.172308
3663.000000	100.161315
3662.000000	100.153824
3661.000000	100.146533
3660.000000	100.135342
3659.000000	100.117951
3658.000000	100.096212
3657.000000	100.074716
3656.000000	100.056100
3655.000000	100.039479
3654.000000	100.023385
3653.000000	100.009532
3652.000000	100.001656
3651.000000	99.997839
3650.000000	99.989657
3649.000000	99.974593
3648.000000	99.958366
3647.000000	99.944363
3646.000000	99.930015
3645.000000	99.911661
3644.000000	99.889002
3643.000000	99.864856
3642.000000	99.842326
3641.000000	99.823124
3640.000000	99.808015
3639.000000	99.795833
3638.000000	99.782402
3637.000000	99.763602
3636.000000	99.740641
3635.000000	99.719638
3634.000000	99.703673
3633.000000	99.688579
3632.000000	99.668708
3631.000000	99.646305
3630.000000	99.628081
3629.000000	99.614153
3628.000000	99.600180
3627.000000	99.584195
3626.000000	99.567636
3625.000000	99.552958
3624.000000	99.540850
3623.000000	99.531514
3622.000000	99.528205
3621.000000	99.535747
3620.000000	99.554407
3619.000000	99.578338
3618.000000	99.600936
3617.000000	99.619563
3616.000000	99.635961
3615.000000	99.653331
3614.000000	99.672440
3613.000000	99.690936
3612.000000	99.706312
3611.000000	99.718638
3610.000000	99.729950
3609.000000	99.741478
3608.000000	99.753234
3607.000000	99.765383
3606.000000	99.777839
3605.000000	99.789022
3604.000000	99.796531
3603.000000	99.798861
3602.000000	99.796897
3601.000000	99.793264
3600.000000	99.790527
3599.000000	99.790025
3598.000000	99.791760
3597.000000	99.795380
3596.000000	99.801618
3595.000000	99.811994
3594.000000	99.826150
3593.000000	99.840520
3592.000000	99.850732
3591.000000	99.855977
3590.000000	99.860030
3589.000000	99.865853
3588.000000	99.870362
3587.000000	99.867770
3586.000000	99.856803
3585.000000	99.842368
3584.000000	99.831617
3583.000000	99.828960
3582.000000	99.833839
3581.000000	99.841945
3580.000000	99.848147
3579.000000	99.849286
3578.000000	99.845238
3577.000000	99.838617
3576.000000	99.833378
3575.000000	99.832549
3574.000000	99.836252
3573.000000	99.841712
3572.000000	99.845302
3571.000000	99.844930
3570.000000	99.841003
3569.000000	99.835331
3568.000000	99.829829
3567.000000	99.826749
3566.000000	99.827551
3565.000000	99.830490
3564.000000	99.831800
3563.000000	99.829231
3562.000000	99.823506
3561.000000	99.817097
3560.000000	99.811844
3559.000000	99.807684
3558.000000	99.803564
3557.000000	99.799100
3556.000000	99.795172
3555.000000	99.793143
3554.000000	99.793551
3553.000000	99.795375
3552.000000	99.796562
3551.000000	99.795650
3550.000000	99.792880
3549.000000	99.789618
3548.000000	99.786874
3547.000000	99.784590
3546.000000	99.782279
3545.000000	99.779854
3544.000000	99.777633
3543.000000	99.775848
3542.000000	99.774383
3541.000000	99.772881
3540.000000	99.770956
3539.000000	99.768365
3538.000000	99.765157
3537.000000	99.761782
3536.000000	99.758964
3535.000000	99.757148
3534.000000	99.755971
3533.000000	99.754435
3532.000000	99.751731
3531.000000	99.748066
3530.000000	99.744666
3529.000000	99.742806
3528.000000	99.742779
3527.000000	99.743694
3526.000000	99.744214
3525.000000	99.743598
3524.000000	99.742032
3523.000000	99.740203
3522.000000	99.738564
3521.000000	99.736950
3520.000000	99.734891
3519.000000	99.732177
3518.000000	99.729168
3517.000000	99.726628
3516.000000	99.725204
3515.000000	99.724977
3514.000000	99.725487
3513.000000	99.726207
3512.000000	99.726803
3511.000000	99.726838
3510.000000	99.725570
3509.000000	99.722417
3508.000000	99.717691
3507.000000	99.712663
3506.000000	99.708646
3505.000000	99.706011
3504.000000	99.704072
3503.000000	99.701772
3502.000000	99.698499
3501.000000	99.694401
3500.000000	99.690196
3499.000000	99.686722
3498.000000	99.684520
3497.000000	99.683746
3496.000000	99.684344
3495.000000	99.685962
3494.000000	99.687627
3493.000000	99.688000
3492.000000	99.686434
3491.000000	99.683683
3490.000000	99.681236
3489.000000	99.679823
3488.000000	99.678810
3487.000000	99.677097
3486.000000	99.674216
3485.000000	99.670441
3484.000000	99.666294
3483.000000	99.662380
3482.000000	99.659434
3481.000000	99.657830
3480.000000	99.656909
3479.000000	99.655254
3478.000000	99.651975
3477.000000	99.647518
3476.000000	99.643164
3475.000000	99.639754
3474.000000	99.637006
3473.000000	99.634080
3472.000000	99.630570
3471.000000	99.626861
3470.000000	99.623644
3469.000000	99.621281
3468.000000	99.619581
3467.000000	99.617971
3466.000000	99.615844
3465.000000	99.612906
3464.000000	99.609325
3463.000000	99.605607
3462.000000	99.602237
3461.000000	99.599383
3460.000000	99.596952
3459.000000	99.594794
3458.000000	99.592753
3457.000000	99.590585
3456.000000	99.588034
3455.000000	99.585071
3454.000000	99.582010
3453.000000	99.579244
3452.000000	99.576821
3451.000000	99.574349
3450.000000	99.571413
3449.000000	99.568063
3448.000000	99.564842
3447.000000	99.562317
3446.000000	99.560639
3445.000000	99.559467
3444.000000	99.558249
3443.000000	99.556564
3442.000000	99.554252
3441.000000	99.551386
3440.000000	99.548203
3439.000000	99.544974
3438.000000	99.541889
3437.000000	99.539011
3436.000000	99.536333
3435.000000	99.533880
3434.000000	99.531768
3433.000000	99.530115
3432.000000	99.528806
3431.000000	99.527370
3430.000000	99.525282
3429.000000	99.522491
3428.000000	99.519690
3427.000000	99.517871
3426.000000	99.517431
3425.000000	99.517644
3424.000000	99.517206
3423.000000	99.515510
3422.000000	99.513264
3421.000000	99.511678
3420.000000	99.511140
3419.000000	99.511004
3418.000000	99.510540
3417.000000	99.509587
3416.000000	99.508091
3415.000000	99.505651
3414.000000	99.502134
3413.000000	99.498552
3412.000000	99.496510
3411.000000	99.496480
3410.000000	99.497045
3409.000000	99.496255
3408.000000	99.493787
3407.000000	99.491353
3406.000000	99.490850
3405.000000	99.492608
3404.000000	99.495474
3403.000000	99.498194
3402.000000	99.500428
3401.000000	99.502365
3400.000000	99.503919
3399.000000	99.504604
3398.000000	99.503986
3397.000000	99.502087
3396.000000	99.499461
3395.000000	99.496981
3394.000000	99.495333
3393.000000	99.494578
3392.000000	99.494298
3391.000000	99.494287
3390.000000	99.494972
3389.000000	99.496856
3388.000000	99.499667
3387.000000	99.502353
3386.000000	99.504068
3385.000000	99.505032
3384.000000	99.506246
3383.000000	99.508415
3382.000000	99.511238
3381.000000	99.513695
3380.000000	99.514918
3379.000000	99.514804
3378.000000	99.514028
3377.000000	99.513654
3376.000000	99.514610
3375.000000	99.517171
3374.000000	99.520757
3373.000000	99.524215
3372.000000	99.526624
3371.000000	99.527946
3370.000000	99.528893
3369.000000	99.530210
3368.000000	99.532070
3367.000000	99.534078
3366.000000	99.535705
3365.000000	99.536777
3364.000000	99.537712
3363.000000	99.539322
3362.000000	99.542182
3361.000000	99.546159
3360.000000	99.550544
3359.000000	99.554631
3358.000000	99.558072
3357.000000	99.560694
3356.000000	99.562364
3355.000000	99.563299
3354.000000	99.564279
3353.000000	99.566110
3352.000000	99.568854
3351.000000	99.571848
3350.000000	99.574445
3349.000000	99.576604
3348.000000	99.578689
3347.000000	99.581005
3346.000000	99.583663
3345.000000	99.586653
3344.000000	99.589784
3343.000000	99.592702
3342.000000	99.595277
3341.000000	99.597902
3340.000000	99.601136
3339.000000	99.605044
3338.000000	99.609051
3337.000000	99.612501
3336.000000	99.615308
3335.000000	99.617944
3334.000000	99.620952
3333.000000	99.624444
3332.000000	99.627999
3331.000000	99.631031
3330.000000	99.633356
3329.000000	99.635330
3328.000000	99.637550
3327.000000	99.640261
3326.000000	99.643239
3325.000000	99.646145
3324.000000	99.648881
3323.000000	99.651606
3322.000000	99.654470
3321.000000	99.657453
3320.000000	99.660442
3319.000000	99.663381
3318.000000	99.666308
3317.000000	99.669286
3316.000000	99.672323
3315.000000	99.675371
3314.000000	99.678389
3313.000000	99.681392
3312.000000	99.684419
3311.000000	99.687485
3310.000000	99.690563
3309.000000	99.693605
3308.000000	99.696578
3307.000000	99.699490
3306.000000	99.702388
3305.000000	99.705331
3304.000000	99.708342
3303.000000	99.711391
3302.000000	99.714411
3301.000000	99.717366
3300.000000	99.720297
3299.000000	99.723294
3298.000000	99.726408
3297.000000	99.729604
3296.000000	99.732770
3295.000000	99.735819
3294.000000	99.738756
3293.000000	99.741706
3292.000000	99.744811
3291.000000	99.748079
3290.000000	99.751327
3289.000000	99.754329
3288.000000	99.757013
3287.000000	99.759545
3286.000000	99.762194
3285.000000	99.765102
3284.000000	99.768287
3283.000000	99.771740
3282.000000	99.775410
3281.000000	99.779118
3280.000000	99.782718
3279.000000	99.786329
3278.000000	99.790160
3277.000000	99.793999
3276.000000	99.797181
3275.000000	99.799304
3274.000000	99.800765
3273.000000	99.802414
3272.000000	99.804661
3271.000000	99.807208
3270.000000	99.809605
3269.000000	99.811901
3268.000000	99.814622
3267.000000	99.818196
3266.000000	99.822587
3265.000000	99.827342
3264.000000	99.831843
3263.000000	99.835590
3262.000000	99.838386
3261.000000	99.840478
3260.000000	99.842504
3259.000000	99.845101
3258.000000	99.848484
3257.000000	99.852376
3256.000000	99.856320
3255.000000	99.860026
3254.000000	99.863406
3253.000000	99.866390
3252.000000	99.868867
3251.000000	99.870857
3250.000000	99.872653
3249.000000	99.874700
3248.000000	99.877289
3247.000000	99.880398
3246.000000	99.883762
3245.000000	99.887077
3244.000000	99.890201
3243.000000	99.893223
3242.000000	99.896401
3241.000000	99.900040
3240.000000	99.904297
3239.000000	99.909005
3238.000000	99.913651
3237.000000	99.917627
3236.000000	99.920695
3235.000000	99.923149
3234.000000	99.925594
3233.000000	99.928490
3232.000000	99.931857
3231.000000	99.935406
3230.000000	99.938865
3229.000000	99.942200
3228.000000	99.945568
3227.000000	99.949093
3226.000000	99.952729
3225.000000	99.956314
3224.000000	99.959756
3223.000000	99.963136
3222.000000	99.966626
3221.000000	99.970297
3220.000000	99.974062
3219.000000	99.977778
3218.000000	99.981376
3217.000000	99.984860
3216.000000	99.988236
3215.000000	99.991506
3214.000000	99.994723
3213.000000	99.998003
3212.000000	100.001435
3211.000000	100.005017
3210.000000	100.008679
3209.000000	100.012343
3208.000000	100.015972
3207.000000	100.019570
3206.000000	100.023152
3205.000000	100.026737
3204.000000	100.030348
3203.000000	100.034001
3202.000000	100.037700
3201.000000	100.041435
3200.000000	100.045183
3199.000000	100.048908
3198.000000	100.052575
3197.000000	100.056161
3196.000000	100.059687
3195.000000	100.063240
3194.000000	100.066921
3193.000000	100.070773
3192.000000	100.074729
3191.000000	100.078655
3190.000000	100.082466
3189.000000	100.086208
3188.000000	100.090012
3187.000000	100.093923
3186.000000	100.097810
3185.000000	100.101508
3184.000000	100.105016
3183.000000	100.108508
3182.000000	100.112107
3181.000000	100.115724
3180.000000	100.119186
3179.000000	100.122481
3178.000000	100.125822
3177.000000	100.129426
3176.000000	100.133309
3175.000000	100.137282
3174.000000	100.141121
3173.000000	100.144733
3172.000000	100.148238
3171.000000	100.151903
3170.000000	100.155941
3169.000000	100.160331
3168.000000	100.164809
3167.000000	100.169068
3166.000000	100.172964
3165.000000	100.176551
3164.000000	100.180026
3163.000000	100.183557
3162.000000	100.187148
3161.000000	100.190638
3160.000000	100.193887
3159.000000	100.196930
3158.000000	100.199974
3157.000000	100.203248
3156.000000	100.206860
3155.000000	100.210744
3154.000000	100.214672
3153.000000	100.218390
3152.000000	100.221767
3151.000000	100.224848
3150.000000	100.227805
3149.000000	100.230821
3148.000000	100.234042
3147.000000	100.237527
3146.000000	100.241170
3145.000000	100.244756
3144.000000	100.248140
3143.000000	100.251369
3142.000000	100.254558
3141.000000	100.257723
3140.000000	100.260796
3139.000000	100.263789
3138.000000	100.266849
3137.000000	100.270096
3136.000000	100.273504
3135.000000	100.276921
3134.000000	100.280220
3133.000000	100.283380
3132.000000	100.286463
3131.000000	100.289557
3130.000000	100.292732
3129.000000	100.295992
3128.000000	100.299224
3127.000000	100.302277
3126.000000	100.305113
3125.000000	100.307834
3124.000000	100.310563
3123.000000	100.313357
3122.000000	100.316278
3121.000000	100.319413
3120.000000	100.322741
3119.000000	100.326013
3118.000000	100.328953
3117.000000	100.331537
3116.000000	100.333973
3115.000000	100.336405
3114.000000	100.338777
3113.000000	100.341082
3112.000000	100.343535
3111.000000	100.346363
3110.000000	100.349468
3109.000000	100.352403
3108.000000	100.354796
3107.000000	100.356685
3106.000000	100.358481
3105.000000	100.360580
3104.000000	100.363080
3103.000000	100.365893
3102.000000	100.368934
3101.000000	100.372091
3100.000000	100.375122
3099.000000	100.377836
3098.000000	100.380359
3097.000000	100.382962
3096.000000	100.385582
3095.000000	100.387806
3094.000000	100.389442
3093.000000	100.390775
3092.000000	100.392079
3091.000000	100.393228
3090.000000	100.394102
3089.000000	100.395101
3088.000000	100.396871
3087.000000	100.399606
3086.000000	100.402887
3085.000000	100.406126
3084.000000	100.408956
3083.000000	100.411198
3082.000000	100.412887
3081.000000	100.414431
3080.000000	100.416393
3079.000000	100.418824
3078.000000	100.421039
3077.000000	100.422338
3076.000000	100.422803
3075.000000	100.423246
3074.000000	100.424393
3073.000000	100.426314
3072.000000	100.428619
3071.000000	100.430967
3070.000000	100.433346
3069.000000	100.435919
3068.000000	100.438720
3067.000000	100.441534
3066.000000	100.443992
3065.000000	100.445816
3064.000000	100.447064
3063.000000	100.448061
3062.000000	100.449125
3061.000000	100.450387
3060.000000	100.451817
3059.000000	100.453360
3058.000000	100.454998
3057.000000	100.456711
3056.000000	100.458432
3055.000000	100.460059
3054.000000	100.461528
3053.000000	100.462879
3052.000000	100.464251
3051.000000	100.465787
3050.000000	100.467507
3049.000000	100.469273
3048.000000	100.470891
3047.000000	100.472278
3046.000000	100.473509
3045.000000	100.474746
3044.000000	100.476087
3043.000000	100.477520
3042.000000	100.478965
3041.000000	100.480326
3040.000000	100.481530
3039.000000	100.482552
3038.000000	100.483420
3037.000000	100.484198
3036.000000	100.484975
3035.000000	100.485887
3034.000000	100.487149
3033.000000	100.488949
3032.000000	100.491200
3031.000000	100.493339
3030.000000	100.494525
3029.000000	100.494246
3028.000000	100.492967
3027.000000	100.492171
3026.000000	100.493322
3025.000000	100.496636
3024.000000	100.500743
3023.000000	100.503872
3022.000000	100.505365
3021.000000	100.505784
3020.000000	100.505748
3019.000000	100.505136
3018.000000	100.503681
3017.000000	100.502003
3016.000000	100.501553
3015.000000	100.503396
3014.000000	100.507047
3013.000000	100.510467
3012.000000	100.511462
3011.000000	100.509549
3010.000000	100.506669
3009.000000	100.505630
3008.000000	100.507292
3007.000000	100.509506
3006.000000	100.509427
3005.000000	100.506960
3004.000000	100.505285
3003.000000	100.507451
3002.000000	100.512811
3001.000000	100.517559
3000.000000	100.518855
2999.000000	100.517533
2998.000000	100.516387
2997.000000	100.516516
2996.000000	100.516336
2995.000000	100.514038
2994.000000	100.509743
2993.000000	100.504878
2992.000000	100.500474
2991.000000	100.496862
2990.000000	100.494280
2989.000000	100.492602
2988.000000	100.490634
2987.000000	100.486719
2986.000000	100.480260
2985.000000	100.472235
2984.000000	100.464406
2983.000000	100.458484
2982.000000	100.455457
2981.000000	100.454588
2980.000000	100.453364
2979.000000	100.449870
2978.000000	100.445301
2977.000000	100.442750
2976.000000	100.443192
2975.000000	100.444084
2974.000000	100.442494
2973.000000	100.437914
2972.000000	100.430965
2971.000000	100.420890
2970.000000	100.406235
2969.000000	100.387614
2968.000000	100.368083
2967.000000	100.350676
2966.000000	100.336749
2965.000000	100.326527
2964.000000	100.319667
2963.000000	100.314994
2962.000000	100.310938
2961.000000	100.306733
2960.000000	100.302395
2959.000000	100.297610
2958.000000	100.291986
2957.000000	100.286708
2956.000000	100.284459
2955.000000	100.286669
2954.000000	100.291620
2953.000000	100.296206
2952.000000	100.298926
2951.000000	100.300123
2950.000000	100.299740
2949.000000	100.296451
2948.000000	100.289665
2947.000000	100.281328
2946.000000	100.274306
2945.000000	100.268685
2944.000000	100.260615
2943.000000	100.245619
2942.000000	100.222799
2941.000000	100.195156
2940.000000	100.166195
2939.000000	100.137336
2938.000000	100.108861
2937.000000	100.081836
2936.000000	100.057551
2935.000000	100.035261
2934.000000	100.011723
2933.000000	99.983758
2932.000000	99.951600
2931.000000	99.919759
2930.000000	99.894139
2929.000000	99.877429
2928.000000	99.867059
2927.000000	99.858353
2926.000000	99.849873
2925.000000	99.844784
2924.000000	99.846796
2923.000000	99.856321
2922.000000	99.871436
2921.000000	99.891178
2920.000000	99.916342
2919.000000	99.947768
2918.000000	99.985284
2917.000000	100.027780
2916.000000	100.072628
2915.000000	100.114951
2914.000000	100.149222
2913.000000	100.172894
2912.000000	100.188623
2911.000000	100.202674
2910.000000	100.220650
2909.000000	100.243649
2908.000000	100.267732
2907.000000	100.287467
2906.000000	100.300696
2905.000000	100.309822
2904.000000	100.318478
2903.000000	100.328142
2902.000000	100.338678
2901.000000	100.350504
2900.000000	100.363981
2899.000000	100.377221
2898.000000	100.387185
2897.000000	100.393754
2896.000000	100.400894
2895.000000	100.412518
2894.000000	100.428220
2893.000000	100.443999
2892.000000	100.456240
2891.000000	100.463981
2890.000000	100.468270
2889.000000	100.470937
2888.000000	100.473934
2887.000000	100.478474
2886.000000	100.483991
2885.000000	100.488203
2884.000000	100.488866
2883.000000	100.485962
2882.000000	100.482217
2881.000000	100.481083
2880.000000	100.483785
2879.000000	100.488302
2878.000000	100.491313
2877.000000	100.490856
2876.000000	100.487030
2875.000000	100.481062
2874.000000	100.474542
2873.000000	100.469014
2872.000000	100.465130
2871.000000	100.462137
2870.000000	100.459041
2869.000000	100.456075
2868.000000	100.453976
2867.000000	100.451801
2866.000000	100.446664
2865.000000	100.436091
2864.000000	100.419997
2863.000000	100.400305
2862.000000	100.379643
2861.000000	100.360640
2860.000000	100.345100
2859.000000	100.332917
2858.000000	100.322249
2857.000000	100.311296
2856.000000	100.299586
2855.000000	100.287777
2854.000000	100.277503
2853.000000	100.271934
2852.000000	100.275167
2851.000000	100.289731
2850.000000	100.314860
2849.000000	100.347544
2848.000000	100.384647
2847.000000	100.423385
2846.000000	100.460534
2845.000000	100.492794
2844.000000	100.518651
2843.000000	100.539449
2842.000000	100.558209
2841.000000	100.577157
2840.000000	100.596041
2839.000000	100.612583
2838.000000	100.624715
2837.000000	100.632691
2836.000000	100.638986
2835.000000	100.646064
2834.000000	100.654299
2833.000000	100.662063
2832.000000	100.667666
2831.000000	100.671050
2830.000000	100.673633
2829.000000	100.676540
2828.000000	100.679282
2827.000000	100.680716
2826.000000	100.681221
2825.000000	100.682869
2824.000000	100.686804
2823.000000	100.691350
2822.000000	100.693911
2821.000000	100.694258
2820.000000	100.694716
2819.000000	100.697362
2818.000000	100.702337
2817.000000	100.708827
2816.000000	100.716143
2815.000000	100.723415
2814.000000	100.729551
2813.000000	100.734300
2812.000000	100.738524
2811.000000	100.742802
2810.000000	100.746428
2809.000000	100.748334
2808.000000	100.748419
2807.000000	100.747499
2806.000000	100.746429
2805.000000	100.745584
2804.000000	100.744810
2803.000000	100.743791
2802.000000	100.742854
2801.000000	100.743128
2800.000000	100.745157
2799.000000	100.747696
2798.000000	100.748945
2797.000000	100.748913
2796.000000	100.749449
2795.000000	100.751794
2794.000000	100.755122
2793.000000	100.757657
2792.000000	100.758244
2791.000000	100.756737
2790.000000	100.754015
2789.000000	100.752030
2788.000000	100.752841
2787.000000	100.756989
2786.000000	100.763199
2785.000000	100.769706
2784.000000	100.775443
2783.000000	100.779864
2782.000000	100.782576
2781.000000	100.783754
2780.000000	100.784295
2779.000000	100.784889
2778.000000	100.785221
2777.000000	100.784637
2776.000000	100.783254
2775.000000	100.781875
2774.000000	100.781103
2773.000000	100.781071
2772.000000	100.781818
2771.000000	100.783357
2770.000000	100.785373
2769.000000	100.787213
2768.000000	100.788328
2767.000000	100.788637
2766.000000	100.788478
2765.000000	100.788397
2764.000000	100.788881
2763.000000	100.790104
2762.000000	100.791845
2761.000000	100.793572
2760.000000	100.794751
2759.000000	100.795203
2758.000000	100.795151
2757.000000	100.795064
2756.000000	100.795308
2755.000000	100.795880
2754.000000	100.796538
2753.000000	100.797099
2752.000000	100.797610
2751.000000	100.798208
2750.000000	100.798911
2749.000000	100.799625
2748.000000	100.800279
2747.000000	100.800875
2746.000000	100.801430
2745.000000	100.801932
2744.000000	100.802379
2743.000000	100.802792
2742.000000	100.803212
2741.000000	100.803669
2740.000000	100.804159
2739.000000	100.804658
2738.000000	100.805142
2737.000000	100.805606
2736.000000	100.806050
2735.000000	100.806488
2734.000000	100.806942
2733.000000	100.807437
2732.000000	100.807964
2731.000000	100.808472
2730.000000	100.808911
2729.000000	100.809264
2728.000000	100.809523
2727.000000	100.809673
2726.000000	100.809745
2725.000000	100.809844
2724.000000	100.810081
2723.000000	100.810463
2722.000000	100.810919
2721.000000	100.811433
2720.000000	100.812046
2719.000000	100.812713
2718.000000	100.813254
2717.000000	100.813506
2716.000000	100.813482
2715.000000	100.813305
2714.000000	100.813052
2713.000000	100.812804
2712.000000	100.812673
2711.000000	100.812641
2710.000000	100.812518
2709.000000	100.812225
2708.000000	100.812078
2707.000000	100.812573
2706.000000	100.813771
2705.000000	100.815023
2704.000000	100.815605
2703.000000	100.815481
2702.000000	100.815154
2701.000000	100.814869
2700.000000	100.814250
2699.000000	100.812889
2698.000000	100.811117
2697.000000	100.809971
2696.000000	100.810166
2695.000000	100.811201
2694.000000	100.811731
2693.000000	100.811022
2692.000000	100.809733
2691.000000	100.809089
2690.000000	100.809537
2689.000000	100.810446
2688.000000	100.810846
2687.000000	100.810259
2686.000000	100.809068
2685.000000	100.808269
2684.000000	100.808565
2683.000000	100.809484
2682.000000	100.809795
2681.000000	100.809036
2680.000000	100.808114
2679.000000	100.808019
2678.000000	100.808670
2677.000000	100.809665
2676.000000	100.811348
2675.000000	100.814046
2674.000000	100.816696
2673.000000	100.817513
2672.000000	100.815893
2671.000000	100.812548
2670.000000	100.808233
2669.000000	100.803645
2668.000000	100.800471
2667.000000	100.800662
2666.000000	100.804119
2665.000000	100.808361
2664.000000	100.811437
2663.000000	100.814183
2662.000000	100.818443
2661.000000	100.824096
2660.000000	100.829118
2659.000000	100.832098
2658.000000	100.833354
2657.000000	100.833725
2656.000000	100.833383
2655.000000	100.832050
2654.000000	100.829567
2653.000000	100.826016
2652.000000	100.821807
2651.000000	100.817833
2650.000000	100.815211
2649.000000	100.814627
2648.000000	100.816016
2647.000000	100.818749
2646.000000	100.821958
2645.000000	100.824772
2644.000000	100.826561
2643.000000	100.827206
2642.000000	100.827135
2641.000000	100.826995
2640.000000	100.827217
2639.000000	100.827838
2638.000000	100.828709
2637.000000	100.829681
2636.000000	100.830416
2635.000000	100.830215
2634.000000	100.828552
2633.000000	100.825965
2632.000000	100.824039
2631.000000	100.823914
2630.000000	100.825120
2629.000000	100.826111
2628.000000	100.825930
2627.000000	100.824992
2626.000000	100.824202
2625.000000	100.823923
2624.000000	100.823979
2623.000000	100.824235
2622.000000	100.824748
2621.000000	100.825475
2620.000000	100.826160
2619.000000	100.826546
2618.000000	100.826553
2617.000000	100.826259
2616.000000	100.825830
2615.000000	100.825467
2614.000000	100.825314
2613.000000	100.825376
2612.000000	100.825566
2611.000000	100.825763
2610.000000	100.825871
2609.000000	100.825861
2608.000000	100.825763
2607.000000	100.825635
2606.000000	100.825527
2605.000000	100.825461
2604.000000	100.825430
2603.000000	100.825394
2602.000000	100.825307
2601.000000	100.825152
2600.000000	100.824953
2599.000000	100.824752
2598.000000	100.824583
2597.000000	100.824459
2596.000000	100.824376
2595.000000	100.824304
2594.000000	100.824198
2593.000000	100.824045
2592.000000	100.823895
2591.000000	100.823845
2590.000000	100.823956
2589.000000	100.824188
2588.000000	100.824412
2587.000000	100.824476
2586.000000	100.824255
2585.000000	100.823714
2584.000000	100.823031
2583.000000	100.822532
2582.000000	100.822447
2581.000000	100.822743
2580.000000	100.823206
2579.000000	100.823682
2578.000000	100.824157
2577.000000	100.824663
2576.000000	100.825204
2575.000000	100.825696
2574.000000	100.825949
2573.000000	100.825785
2572.000000	100.825245
2571.000000	100.824656
2570.000000	100.824376
2569.000000	100.824458
2568.000000	100.824691
2567.000000	100.824874
2566.000000	100.824939
2565.000000	100.824886
2564.000000	100.824749
2563.000000	100.824650
2562.000000	100.824757
2561.000000	100.825129
2560.000000	100.825640
2559.000000	100.826075
2558.000000	100.826281
2557.000000	100.826284
2556.000000	100.826285
2555.000000	100.826516
2554.000000	100.827019
2553.000000	100.827600
2552.000000	100.828074
2551.000000	100.828499
2550.000000	100.829054
2549.000000	100.829688
2548.000000	100.830057
2547.000000	100.829931
2546.000000	100.829458
2545.000000	100.829014
2544.000000	100.828872
2543.000000	100.829065
2542.000000	100.829484
2541.000000	100.829954
2540.000000	100.830294
2539.000000	100.830403
2538.000000	100.830320
2537.000000	100.830213
2536.000000	100.830260
2535.000000	100.830489
2534.000000	100.830748
2533.000000	100.830861
2532.000000	100.830818
2531.000000	100.830808
2530.000000	100.831009
2529.000000	100.831376
2528.000000	100.831670
2527.000000	100.831768
2526.000000	100.831842
2525.000000	100.832150
2524.000000	100.832701
2523.000000	100.833247
2522.000000	100.833604
2521.000000	100.833881
2520.000000	100.834329
2519.000000	100.835060
2518.000000	100.835977
2517.000000	100.836901
2516.000000	100.837648
2515.000000	100.838064
2514.000000	100.838128
2513.000000	100.838021
2512.000000	100.837993
2511.000000	100.838135
2510.000000	100.838375
2509.000000	100.838692
2508.000000	100.839196
2507.000000	100.839936
2506.000000	100.840739
2505.000000	100.841373
2504.000000	100.841788
2503.000000	100.842130
2502.000000	100.842536
2501.000000	100.842993
2500.000000	100.843426
2499.000000	100.843847
2498.000000	100.844363
2497.000000	100.845076
2496.000000	100.845979
2495.000000	100.846955
2494.000000	100.847880
2493.000000	100.848724
2492.000000	100.849532
2491.000000	100.850325
2490.000000	100.851049
2489.000000	100.851669
2488.000000	100.852235
2487.000000	100.852823
2486.000000	100.853447
2485.000000	100.854056
2484.000000	100.854619
2483.000000	100.855147
2482.000000	100.855671
2481.000000	100.856237
2480.000000	100.856916
2479.000000	100.857749
2478.000000	100.858665
2477.000000	100.859492
2476.000000	100.860116
2475.000000	100.860595
2474.000000	100.861108
2473.000000	100.861782
2472.000000	100.862631
2471.000000	100.863610
2470.000000	100.864625
2469.000000	100.865509
2468.000000	100.866093
2467.000000	100.866356
2466.000000	100.866488
2465.000000	100.866777
2464.000000	100.867420
2463.000000	100.868467
2462.000000	100.869794
2461.000000	100.871126
2460.000000	100.872204
2459.000000	100.872991
2458.000000	100.873676
2457.000000	100.874422
2456.000000	100.875161
2455.000000	100.875682
2454.000000	100.875870
2453.000000	100.875830
2452.000000	100.875819
2451.000000	100.876054
2450.000000	100.876480
2449.000000	100.876783
2448.000000	100.876732
2447.000000	100.876531
2446.000000	100.876687
2445.000000	100.877490
2444.000000	100.878756
2443.000000	100.880102
2442.000000	100.881373
2441.000000	100.882701
2440.000000	100.884172
2439.000000	100.885517
2438.000000	100.886188
2437.000000	100.885810
2436.000000	100.884584
2435.000000	100.883246
2434.000000	100.882507
2433.000000	100.882551
2432.000000	100.883115
2431.000000	100.883865
2430.000000	100.884573
2429.000000	100.885062
2428.000000	100.885295
2427.000000	100.885557
2426.000000	100.886274
2425.000000	100.887501
2424.000000	100.888731
2423.000000	100.889395
2422.000000	100.889393
2421.000000	100.889055
2420.000000	100.888759
2419.000000	100.888626
2418.000000	100.888613
2417.000000	100.888701
2416.000000	100.888928
2415.000000	100.889289
2414.000000	100.889647
2413.000000	100.889812
2412.000000	100.889726
2411.000000	100.889545
2410.000000	100.889489
2409.000000	100.889631
2408.000000	100.889877
2407.000000	100.890108
2406.000000	100.890289
2405.000000	100.890440
2404.000000	100.890577
2403.000000	100.890703
2402.000000	100.890821
2401.000000	100.890933
2400.000000	100.891040
2399.000000	100.891153
2398.000000	100.891275
2397.000000	100.891411
2396.000000	100.891562
2395.000000	100.891726
2394.000000	100.891901
2393.000000	100.892080
2392.000000	100.892258
2391.000000	100.892436
2390.000000	100.892612
2389.000000	100.892786
2388.000000	100.892946
2387.000000	100.893081
2386.000000	100.893181
2385.000000	100.893245
2384.000000	100.893279
2383.000000	100.893295
2382.000000	100.893309
2381.000000	100.893326
2380.000000	100.893346
2379.000000	100.893365
2378.000000	100.893379
2377.000000	100.893392
2376.000000	100.893410
2375.000000	100.893434
2374.000000	100.893463
2373.000000	100.893490
2372.000000	100.893516
2371.000000	100.893545
2370.000000	100.893583
2369.000000	100.893630
2368.000000	100.893676
2367.000000	100.893708
2366.000000	100.893724
2365.000000	100.893726
2364.000000	100.893720
2363.000000	100.893706
2362.000000	100.893681
2361.000000	100.893646
2360.000000	100.893604
2359.000000	100.893555
2358.000000	100.893496
2357.000000	100.893423
2356.000000	100.893329
2355.000000	100.893206
2354.000000	100.893050
2353.000000	100.892866
2352.000000	100.892668
2351.000000	100.892466
2350.000000	100.892263
2349.000000	100.892050
2348.000000	100.891813
2347.000000	100.891547
2346.000000	100.891259
2345.000000	100.890968
2344.000000	100.890693
2343.000000	100.890440
2342.000000	100.890211
2341.000000	100.889999
2340.000000	100.889796
2339.000000	100.889588
2338.000000	100.889368
2337.000000	100.889137
2336.000000	100.888899
2335.000000	100.888655
2334.000000	100.888397
2333.000000	100.888118
2332.000000	100.887812
2331.000000	100.887484
2330.000000	100.887141
2329.000000	100.886789
2328.000000	100.886429
2327.000000	100.886059
2326.000000	100.885682
2325.000000	100.885303
2324.000000	100.884923
2323.000000	100.884542
2322.000000	100.884153
2321.000000	100.883756
2320.000000	100.883354
2319.000000	100.882949
2318.000000	100.882538
2317.000000	100.882117
2316.000000	100.881685
2315.000000	100.881247
2314.000000	100.880811
2313.000000	100.880381
2312.000000	100.879965
2311.000000	100.879569
2310.000000	100.879187
2309.000000	100.878799
2308.000000	100.878386
2307.000000	100.877958
2306.000000	100.877546
2305.000000	100.877165
2304.000000	100.876809
2303.000000	100.876455
2302.000000	100.876091
2301.000000	100.875713
2300.000000	100.875324
2299.000000	100.874921
2298.000000	100.874506
2297.000000	100.874083
2296.000000	100.873663
2295.000000	100.873255
2294.000000	100.872860
2293.000000	100.872476
2292.000000	100.872099
2291.000000	100.871730
2290.000000	100.871373
2289.000000	100.871030
2288.000000	100.870701
2287.000000	100.870381
2286.000000	100.870069
2285.000000	100.869762
2284.000000	100.869458
2283.000000	100.869154
2282.000000	100.868846
2281.000000	100.868532
2280.000000	100.868218
2279.000000	100.867908
2278.000000	100.867604
2277.000000	100.867308
2276.000000	100.867021
2275.000000	100.866750
2274.000000	100.866495
2273.000000	100.866254
2272.000000	100.866017
2271.000000	100.865778
2270.000000	100.865530
2269.000000	100.865275
2268.000000	100.865021
2267.000000	100.864778
2266.000000	100.864549
2265.000000	100.864330
2264.000000	100.864111
2263.000000	100.863890
2262.000000	100.863668
2261.000000	100.863451
2260.000000	100.863242
2259.000000	100.863041
2258.000000	100.862846
2257.000000	100.862660
2256.000000	100.862484
2255.000000	100.862316
2254.000000	100.862152
2253.000000	100.861985
2252.000000	100.861813
2251.000000	100.861635
2250.000000	100.861455
2249.000000	100.861275
2248.000000	100.861098
2247.000000	100.860924
2246.000000	100.860751
2245.000000	100.860575
2244.000000	100.860394
2243.000000	100.860205
2242.000000	100.860009
2241.000000	100.859811
2240.000000	100.859620
2239.000000	100.859446
2238.000000	100.859294
2237.000000	100.859159
2236.000000	100.859034
2235.000000	100.858910
2234.000000	100.858781
2233.000000	100.858645
2232.000000	100.858505
2231.000000	100.858369
2230.000000	100.858240
2229.000000	100.858125
2228.000000	100.858021
2227.000000	100.857926
2226.000000	100.857833
2225.000000	100.857739
2224.000000	100.857641
2223.000000	100.857546
2222.000000	100.857460
2221.000000	100.857391
2220.000000	100.857341
2219.000000	100.857306
2218.000000	100.857281
2217.000000	100.857265
2216.000000	100.857256
2215.000000	100.857254
2214.000000	100.857261
2213.000000	100.857276
2212.000000	100.857302
2211.000000	100.857340
2210.000000	100.857388
2209.000000	100.857447
2208.000000	100.857518
2207.000000	100.857602
2206.000000	100.857697
2205.000000	100.857798
2204.000000	100.857899
2203.000000	100.857998
2202.000000	100.858100
2201.000000	100.858210
2200.000000	100.858334
2199.000000	100.858474
2198.000000	100.858623
2197.000000	100.858770
2196.000000	100.858908
2195.000000	100.859038
2194.000000	100.859169
2193.000000	100.859311
2192.000000	100.859470
2191.000000	100.859648
2190.000000	100.859836
2189.000000	100.860024
2188.000000	100.860205
2187.000000	100.860378
2186.000000	100.860549
2185.000000	100.860727
2184.000000	100.860918
2183.000000	100.861124
2182.000000	100.861344
2181.000000	100.861570
2180.000000	100.861794
2179.000000	100.862008
2178.000000	100.862211
2177.000000	100.862401
2176.000000	100.862582
2175.000000	100.862760
2174.000000	100.862937
2173.000000	100.863116
2172.000000	100.863295
2171.000000	100.863470
2170.000000	100.863638
2169.000000	100.863799
2168.000000	100.863955
2167.000000	100.864107
2166.000000	100.864257
2165.000000	100.864407
2164.000000	100.864555
2163.000000	100.864698
2162.000000	100.864838
2161.000000	100.864988
2160.000000	100.865170
2159.000000	100.865391
2158.000000	100.865633
2157.000000	100.865874
2156.000000	100.866108
2155.000000	100.866348
2154.000000	100.866604
2153.000000	100.866862
2152.000000	100.867107
2151.000000	100.867335
2150.000000	100.867551
2149.000000	100.867759
2148.000000	100.867966
2147.000000	100.868185
2146.000000	100.868426
2145.000000	100.868686
2144.000000	100.868956
2143.000000	100.869231
2142.000000	100.869508
2141.000000	100.869783
2140.000000	100.870052
2139.000000	100.870314
2138.000000	100.870574
2137.000000	100.870840
2136.000000	100.871115
2135.000000	100.871394
2134.000000	100.871673
2133.000000	100.871952
2132.000000	100.872222
2131.000000	100.872471
2130.000000	100.872717
2129.000000	100.873013
2128.000000	100.873388
2127.000000	100.873777
2126.000000	100.874055
2125.000000	100.874186
2124.000000	100.874307
2123.000000	100.874614
2122.000000	100.875193
2121.000000	100.875964
2120.000000	100.876750
2119.000000	100.877378
2118.000000	100.877776
2117.000000	100.878046
2116.000000	100.878421
2115.000000	100.879075
2114.000000	100.879938
2113.000000	100.880716
2112.000000	100.881152
2111.000000	100.881314
2110.000000	100.881543
2109.000000	100.882050
2108.000000	100.882620
2107.000000	100.882878
2106.000000	100.882788
2105.000000	100.882725
2104.000000	100.883092
2103.000000	100.884053
2102.000000	100.885513
2101.000000	100.887003
2100.000000	100.887623
2099.000000	100.886704
2098.000000	100.884806
2097.000000	100.883599
2096.000000	100.884184
2095.000000	100.885891
2094.000000	100.887104
2093.000000	100.887147
2092.000000	100.886812
2091.000000	100.887225
2090.000000	100.888880
2089.000000	100.891799
2088.000000	100.895761
2087.000000	100.899986
2086.000000	100.903258
2085.000000	100.904994
2084.000000	100.905970
2083.000000	100.907519
2082.000000	100.909995
2081.000000	100.912407
2080.000000	100.913596
2079.000000	100.913398
2078.000000	100.912585
2077.000000	100.912137
2076.000000	100.912751
2075.000000	100.914644
2074.000000	100.917360
2073.000000	100.919821
2072.000000	100.921123
2071.000000	100.921347
2070.000000	100.921214
2069.000000	100.920954
2068.000000	100.920058
2067.000000	100.918371
2066.000000	100.916814
2065.000000	100.916425
2064.000000	100.917036
2063.000000	100.917652
2062.000000	100.917888
2061.000000	100.918258
2060.000000	100.919031
2059.000000	100.919640
2058.000000	100.919519
2057.000000	100.918907
2056.000000	100.918405
2055.000000	100.918238
2054.000000	100.918370
2053.000000	100.918934
2052.000000	100.920014
2051.000000	100.921204
2050.000000	100.921828
2049.000000	100.921566
2048.000000	100.920627
2047.000000	100.919456
2046.000000	100.918448
2045.000000	100.917840
2044.000000	100.917644
2043.000000	100.917697
2042.000000	100.917859
2041.000000	100.918104
2040.000000	100.918350
2039.000000	100.918350
2038.000000	100.917893
2037.000000	100.917034
2036.000000	100.916057
2035.000000	100.915282
2034.000000	100.914925
2033.000000	100.915026
2032.000000	100.915373
2031.000000	100.915562
2030.000000	100.915317
2029.000000	100.914668
2028.000000	100.913802
2027.000000	100.912862
2026.000000	100.911946
2025.000000	100.911228
2024.000000	100.910883
2023.000000	100.910870
2022.000000	100.910926
2021.000000	100.910833
2020.000000	100.910565
2019.000000	100.910152
2018.000000	100.909582
2017.000000	100.908956
2016.000000	100.908530
2015.000000	100.908433
2014.000000	100.908402
2013.000000	100.907985
2012.000000	100.906997
2011.000000	100.905697
2010.000000	100.904573
2009.000000	100.903950
2008.000000	100.903803
2007.000000	100.903856
2006.000000	100.903853
2005.000000	100.903805
2004.000000	100.903907
2003.000000	100.904245
2002.000000	100.904675
2001.000000	100.905043
2000.000000	100.905272
1999.000000	100.905161
1998.000000	100.904353
1997.000000	100.902734
1996.000000	100.900736
1995.000000	100.899058
1994.000000	100.898104
1993.000000	100.897868
1992.000000	100.898153
1991.000000	100.898670
1990.000000	100.899016
1989.000000	100.898860
1988.000000	100.898243
1987.000000	100.897528
1986.000000	100.897068
1985.000000	100.897020
1984.000000	100.897397
1983.000000	100.898023
1982.000000	100.898457
1981.000000	100.898315
1980.000000	100.897679
1979.000000	100.897004
1978.000000	100.896566
1977.000000	100.896222
1976.000000	100.895847
1975.000000	100.895756
1974.000000	100.896471
1973.000000	100.898129
1972.000000	100.900241
1971.000000	100.902015
1970.000000	100.902931
1969.000000	100.902992
1968.000000	100.902505
1967.000000	100.901661
1966.000000	100.900546
1965.000000	100.899534
1964.000000	100.899318
1963.000000	100.900257
1962.000000	100.901769
1961.000000	100.902691
1960.000000	100.902419
1959.000000	100.901390
1958.000000	100.900449
1957.000000	100.900065
1956.000000	100.900313
1955.000000	100.901186
1954.000000	100.902469
1953.000000	100.903535
1952.000000	100.903793
1951.000000	100.903285
1950.000000	100.902546
1949.000000	100.901882
1948.000000	100.901103
1947.000000	100.900011
1946.000000	100.898802
1945.000000	100.897769
1944.000000	100.896843
1943.000000	100.895703
1942.000000	100.894297
1941.000000	100.892980
1940.000000	100.892037
1939.000000	100.891482
1938.000000	100.891346
1937.000000	100.891738
1936.000000	100.892507
1935.000000	100.893122
1934.000000	100.893155
1933.000000	100.892811
1932.000000	100.892720
1931.000000	100.893049
1930.000000	100.893154
1929.000000	100.892360
1928.000000	100.890770
1927.000000	100.889226
1926.000000	100.888447
1925.000000	100.888455
1924.000000	100.888649
1923.000000	100.888238
1922.000000	100.886852
1921.000000	100.884806
1920.000000	100.882746
1919.000000	100.881118
1918.000000	100.879787
1917.000000	100.878234
1916.000000	100.876086
1915.000000	100.873314
1914.000000	100.870316
1913.000000	100.867880
1912.000000	100.866803
1911.000000	100.867250
1910.000000	100.868596
1909.000000	100.869862
1908.000000	100.870318
1907.000000	100.869803
1906.000000	100.868467
1905.000000	100.866622
1904.000000	100.864639
1903.000000	100.862723
1902.000000	100.860940
1901.000000	100.859410
1900.000000	100.858282
1899.000000	100.857707
1898.000000	100.857772
1897.000000	100.858267
1896.000000	100.858377
1895.000000	100.856964
1894.000000	100.853718
1893.000000	100.849754
1892.000000	100.846529
1891.000000	100.844475
1890.000000	100.843040
1889.000000	100.841790
1888.000000	100.840850
1887.000000	100.840056
1886.000000	100.838798
1885.000000	100.836977
1884.000000	100.835301
1883.000000	100.834269
1882.000000	100.833570
1881.000000	100.832811
1880.000000	100.832132
1879.000000	100.831729
1878.000000	100.831288
1877.000000	100.830542
1876.000000	100.830167
1875.000000	100.831109
1874.000000	100.832913
1873.000000	100.833656
1872.000000	100.832021
1871.000000	100.829199
1870.000000	100.828178
1869.000000	100.830504
1868.000000	100.834273
1867.000000	100.836514
1866.000000	100.836700
1865.000000	100.836518
1864.000000	100.837275
1863.000000	100.838518
1862.000000	100.839116
1861.000000	100.839062
1860.000000	100.839576
1859.000000	100.841711
1858.000000	100.845500
1857.000000	100.850100
1856.000000	100.854115
1855.000000	100.856228
1854.000000	100.856245
1853.000000	100.855596
1852.000000	100.855888
1851.000000	100.857322
1850.000000	100.859096
1849.000000	100.860892
1848.000000	100.863089
1847.000000	100.865606
1846.000000	100.867687
1845.000000	100.868926
1844.000000	100.869560
1843.000000	100.869829
1842.000000	100.869719
1841.000000	100.869423
1840.000000	100.869515
1839.000000	100.870308
1838.000000	100.871293
1837.000000	100.871979
1836.000000	100.872787
1835.000000	100.874252
1834.000000	100.875833
1833.000000	100.876348
1832.000000	100.875444
1831.000000	100.874266
1830.000000	100.874261
1829.000000	100.875607
1828.000000	100.877470
1827.000000	100.879162
1826.000000	100.880576
1825.000000	100.881675
1824.000000	100.882261
1823.000000	100.882289
1822.000000	100.881901
1821.000000	100.881347
1820.000000	100.881033
1819.000000	100.881327
1818.000000	100.882096
1817.000000	100.882721
1816.000000	100.882639
1815.000000	100.881724
1814.000000	100.880259
1813.000000	100.878683
1812.000000	100.877562
1811.000000	100.877433
1810.000000	100.878388
1809.000000	100.880009
1808.000000	100.881581
1807.000000	100.882489
1806.000000	100.882825
1805.000000	100.883486
1804.000000	100.885017
1803.000000	100.886115
1802.000000	100.884422
1801.000000	100.879347
1800.000000	100.873853
1799.000000	100.871629
1798.000000	100.873323
1797.000000	100.876841
1796.000000	100.879656
1795.000000	100.880117
1794.000000	100.878130
1793.000000	100.875357
1792.000000	100.873993
1791.000000	100.874727
1790.000000	100.876568
1789.000000	100.878735
1788.000000	100.881563
1787.000000	100.885331
1786.000000	100.888979
1785.000000	100.890675
1784.000000	100.889696
1783.000000	100.886991
1782.000000	100.884911
1781.000000	100.885981
1780.000000	100.891028
1779.000000	100.897859
1778.000000	100.903312
1777.000000	100.906893
1776.000000	100.910582
1775.000000	100.915525
1774.000000	100.920530
1773.000000	100.923748
1772.000000	100.924742
1771.000000	100.925105
1770.000000	100.924940
1769.000000	100.921959
1768.000000	100.916103
1767.000000	100.911147
1766.000000	100.910416
1765.000000	100.913059
1764.000000	100.916262
1763.000000	100.918334
1762.000000	100.918668
1761.000000	100.916574
1760.000000	100.911654
1759.000000	100.903311
1758.000000	100.891309
1757.000000	100.877673
1756.000000	100.866399
1755.000000	100.859578
1754.000000	100.854122
1753.000000	100.844678
1752.000000	100.829200
1751.000000	100.811574
1750.000000	100.797528
1749.000000	100.789165
1748.000000	100.785049
1747.000000	100.782894
1746.000000	100.780710
1745.000000	100.777277
1744.000000	100.773469
1743.000000	100.771654
1742.000000	100.773270
1741.000000	100.778567
1740.000000	100.788001
1739.000000	100.800602
1738.000000	100.812852
1737.000000	100.820583
1736.000000	100.822297
1735.000000	100.822416
1734.000000	100.826783
1733.000000	100.835250
1732.000000	100.844272
1731.000000	100.851777
1730.000000	100.857492
1729.000000	100.861805
1728.000000	100.865265
1727.000000	100.868041
1726.000000	100.869741
1725.000000	100.870016
1724.000000	100.869810
1723.000000	100.870689
1722.000000	100.873083
1721.000000	100.876238
1720.000000	100.879541
1719.000000	100.883368
1718.000000	100.886753
1717.000000	100.887435
1716.000000	100.886409
1715.000000	100.885766
1714.000000	100.885042
1713.000000	100.882967
1712.000000	100.879325
1711.000000	100.874356
1710.000000	100.868284
1709.000000	100.861797
1708.000000	100.855838
1707.000000	100.850844
1706.000000	100.846754
1705.000000	100.844599
1704.000000	100.845864
1703.000000	100.848347
1702.000000	100.847652
1701.000000	100.844107
1700.000000	100.841239
1699.000000	100.840261
1698.000000	100.837140
1697.000000	100.827648
1696.000000	100.815438
1695.000000	100.808313
1694.000000	100.806549
1693.000000	100.804169
1692.000000	100.798056
1691.000000	100.789813
1690.000000	100.782920
1689.000000	100.779059
1688.000000	100.776847
1687.000000	100.773262
1686.000000	100.765528
1685.000000	100.753728
1684.000000	100.740050
1683.000000	100.728950
1682.000000	100.722656
1681.000000	100.718330
1680.000000	100.713352
1679.000000	100.707523
1678.000000	100.701416
1677.000000	100.695060
1676.000000	100.688799
1675.000000	100.682858
1674.000000	100.676739
1673.000000	100.669542
1672.000000	100.660869
1671.000000	100.651491
1670.000000	100.642554
1669.000000	100.634720
1668.000000	100.628681
1667.000000	100.624462
1666.000000	100.620297
1665.000000	100.613876
1664.000000	100.605002
1663.000000	100.595415
1662.000000	100.586464
1661.000000	100.578095
1660.000000	100.569753
1659.000000	100.561754
1658.000000	100.554969
1657.000000	100.549320
1656.000000	100.542129
1655.000000	100.530467
1654.000000	100.516617
1653.000000	100.506183
1652.000000	100.502957
1651.000000	100.504403
1650.000000	100.505121
1649.000000	100.502258
1648.000000	100.495687
1647.000000	100.488522
1646.000000	100.484167
1645.000000	100.482735
1644.000000	100.482990
1643.000000	100.485074
1642.000000	100.488999
1641.000000	100.493167
1640.000000	100.495650
1639.000000	100.495376
1638.000000	100.491391
1637.000000	100.484367
1636.000000	100.479088
1635.000000	100.481547
1634.000000	100.491346
1633.000000	100.502675
1632.000000	100.511441
1631.000000	100.516122
1630.000000	100.516339
1629.000000	100.513304
1628.000000	100.510751
1627.000000	100.512983
1626.000000	100.520864
1625.000000	100.531322
1624.000000	100.540916
1623.000000	100.548038
1622.000000	100.553229
1621.000000	100.557915
1620.000000	100.563059
1619.000000	100.569853
1618.000000	100.580127
1617.000000	100.593754
1616.000000	100.606409
1615.000000	100.615717
1614.000000	100.623895
1613.000000	100.632465
1612.000000	100.640348
1611.000000	100.646353
1610.000000	100.651935
1609.000000	100.660245
1608.000000	100.672259
1607.000000	100.685211
1606.000000	100.695693
1605.000000	100.703045
1604.000000	100.709086
1603.000000	100.715443
1602.000000	100.721784
1601.000000	100.727213
1600.000000	100.732537
1599.000000	100.739842
1598.000000	100.749723
1597.000000	100.759957
1596.000000	100.767698
1595.000000	100.772284
1594.000000	100.775501
1593.000000	100.779334
1592.000000	100.783991
1591.000000	100.788209
1590.000000	100.791106
1589.000000	100.793592
1588.000000	100.797595
1587.000000	100.803587
1586.000000	100.809465
1585.000000	100.812873
1584.000000	100.813798
1583.000000	100.814242
1582.000000	100.815407
1581.000000	100.816662
1580.000000	100.817647
1579.000000	100.819495
1578.000000	100.822981
1577.000000	100.826357
1576.000000	100.826280
1575.000000	100.823434
1574.000000	100.822477
1573.000000	100.823734
1572.000000	100.822945
1571.000000	100.817684
1570.000000	100.811188
1569.000000	100.808987
1568.000000	100.811230
1567.000000	100.813414
1566.000000	100.813019
1565.000000	100.811461
1564.000000	100.810785
1563.000000	100.810673
1562.000000	100.808099
1561.000000	100.801429
1560.000000	100.797715
1559.000000	100.801164
1558.000000	100.804060
1557.000000	100.803403
1556.000000	100.799756
1555.000000	100.793251
1554.000000	100.784860
1553.000000	100.775525
1552.000000	100.765935
1551.000000	100.756855
1550.000000	100.749462
1549.000000	100.744420
1548.000000	100.740394
1547.000000	100.734785
1546.000000	100.726521
1545.000000	100.717441
1544.000000	100.710721
1543.000000	100.707858
1542.000000	100.707368
1541.000000	100.706836
1540.000000	100.704985
1539.000000	100.701994
1538.000000	100.697711
1537.000000	100.691054
1536.000000	100.681884
1535.000000	100.671645
1534.000000	100.663395
1533.000000	100.658673
1532.000000	100.656326
1531.000000	100.654676
1530.000000	100.652661
1529.000000	100.650098
1528.000000	100.647079
1527.000000	100.643683
1526.000000	100.640300
1525.000000	100.637178
1524.000000	100.634059
1523.000000	100.631067
1522.000000	100.629248
1521.000000	100.628596
1520.000000	100.627272
1519.000000	100.623874
1518.000000	100.618619
1517.000000	100.612757
1516.000000	100.607813
1515.000000	100.604484
1514.000000	100.602190
1513.000000	100.600221
1512.000000	100.598714
1511.000000	100.597603
1510.000000	100.595815
1509.000000	100.592394
1508.000000	100.588904
1507.000000	100.587599
1506.000000	100.586716
1505.000000	100.582818
1504.000000	100.575052
1503.000000	100.564935
1502.000000	100.554222
1501.000000	100.544970
1500.000000	100.539647
1499.000000	100.538713
1498.000000	100.538608
1497.000000	100.534371
1496.000000	100.525784
1495.000000	100.516891
1494.000000	100.509211
1493.000000	100.500627
1492.000000	100.489974
1491.000000	100.479602
1490.000000	100.472656
1489.000000	100.469124
1488.000000	100.466854
1487.000000	100.464005
1486.000000	100.459666
1485.000000	100.453884
1484.000000	100.446423
1483.000000	100.436748
1482.000000	100.425238
1481.000000	100.413801
1480.000000	100.404243
1479.000000	100.395955
1478.000000	100.386976
1477.000000	100.376868
1476.000000	100.367193
1475.000000	100.358275
1474.000000	100.347827
1473.000000	100.333380
1472.000000	100.315521
1471.000000	100.296991
1470.000000	100.278477
1469.000000	100.259338
1468.000000	100.240597
1467.000000	100.224982
1466.000000	100.215927
1465.000000	100.215819
1464.000000	100.222487
1463.000000	100.229356
1462.000000	100.230627
1461.000000	100.225412
1460.000000	100.216793
1459.000000	100.209194
1458.000000	100.206413
1457.000000	100.209468
1456.000000	100.215950
1455.000000	100.222955
1454.000000	100.228716
1453.000000	100.232100
1452.000000	100.232686
1451.000000	100.231113
1450.000000	100.228307
1449.000000	100.224814
1448.000000	100.221478
1447.000000	100.218982
1446.000000	100.217365
1445.000000	100.216481
1444.000000	100.216964
1443.000000	100.219777
1442.000000	100.224314
1441.000000	100.228365
1440.000000	100.229582
1439.000000	100.226830
1438.000000	100.221156
1437.000000	100.216944
1436.000000	100.218894
1435.000000	100.226934
1434.000000	100.236607
1433.000000	100.243944
1432.000000	100.247849
1431.000000	100.249617
1430.000000	100.251471
1429.000000	100.254963
1428.000000	100.260263
1427.000000	100.265820
1426.000000	100.270103
1425.000000	100.273732
1424.000000	100.279246
1423.000000	100.288414
1422.000000	100.299813
1421.000000	100.310586
1420.000000	100.319676
1419.000000	100.327368
1418.000000	100.333695
1417.000000	100.339368
1416.000000	100.345487
1415.000000	100.352385
1414.000000	100.359827
1413.000000	100.368171
1412.000000	100.379171
1411.000000	100.394444
1410.000000	100.412695
1409.000000	100.429857
1408.000000	100.443114
1407.000000	100.453472
1406.000000	100.464552
1405.000000	100.478636
1404.000000	100.493740
1403.000000	100.505873
1402.000000	100.513490
1401.000000	100.519037
1400.000000	100.526859
1399.000000	100.538866
1398.000000	100.552551
1397.000000	100.565111
1396.000000	100.577674
1395.000000	100.593423
1394.000000	100.612406
1393.000000	100.630307
1392.000000	100.643416
1391.000000	100.651860
1390.000000	100.657798
1389.000000	100.662817
1388.000000	100.667346
1387.000000	100.671780
1386.000000	100.677032
1385.000000	100.683217
1384.000000	100.689011
1383.000000	100.693403
1382.000000	100.697003
1381.000000	100.701198
1380.000000	100.706408
1379.000000	100.711734
1378.000000	100.716429
1377.000000	100.721205
1376.000000	100.727887
1375.000000	100.737626
1374.000000	100.749202
1373.000000	100.759687
1372.000000	100.767515
1371.000000	100.773803
1370.000000	100.780689
1369.000000	100.788595
1368.000000	100.795383
1367.000000	100.799165
1366.000000	100.801013
1365.000000	100.804118
1364.000000	100.811036
1363.000000	100.821853
1362.000000	100.834407
1361.000000	100.845862
1360.000000	100.853835
1359.000000	100.857281
1358.000000	100.857716
1357.000000	100.858816
1356.000000	100.863308
1355.000000	100.870179
1354.000000	100.875846
1353.000000	100.877907
1352.000000	100.877086
1351.000000	100.875776
1350.000000	100.876090
1349.000000	100.879085
1348.000000	100.884544
1347.000000	100.891067
1346.000000	100.896827
1345.000000	100.900725
1344.000000	100.902705
1343.000000	100.903092
1342.000000	100.902200
1341.000000	100.900755
1340.000000	100.899871
1339.000000	100.899996
1338.000000	100.900401
1337.000000	100.900542
1336.000000	100.901463
1335.000000	100.904867
1334.000000	100.910907
1333.000000	100.917645
1332.000000	100.922779
1331.000000	100.925223
1330.000000	100.925029
1329.000000	100.922839
1328.000000	100.920087
1327.000000	100.918800
1326.000000	100.920073
1325.000000	100.922724
1324.000000	100.924264
1323.000000	100.923330
1322.000000	100.920617
1321.000000	100.917755
1320.000000	100.916025
1319.000000	100.916008
1318.000000	100.917399
1317.000000	100.918937
1316.000000	100.919378
1315.000000	100.918886
1314.000000	100.918858
1313.000000	100.920096
1312.000000	100.921755
1311.000000	100.922467
1310.000000	100.921895
1309.000000	100.920632
1308.000000	100.919188
1307.000000	100.917828
1306.000000	100.917179
1305.000000	100.918022
1304.000000	100.920139
1303.000000	100.921994
1302.000000	100.922213
1301.000000	100.921340
1300.000000	100.921475
1299.000000	100.923710
1298.000000	100.926304
1297.000000	100.926224
1296.000000	100.922516
1295.000000	100.917585
1294.000000	100.914858
1293.000000	100.915459
1292.000000	100.917608
1291.000000	100.918750
1290.000000	100.917768
1289.000000	100.915570
1288.000000	100.914222
1287.000000	100.915303
1286.000000	100.918566
1285.000000	100.922184
1284.000000	100.924462
1283.000000	100.924999
1282.000000	100.924167
1281.000000	100.922236
1280.000000	100.919511
1279.000000	100.916573
1278.000000	100.913466
1277.000000	100.909255
1276.000000	100.903555
1275.000000	100.898168
1274.000000	100.895961
1273.000000	100.897942
1272.000000	100.902310
1271.000000	100.906503
1270.000000	100.909638
1269.000000	100.912830
1268.000000	100.917543
1267.000000	100.923510
1266.000000	100.927973
1265.000000	100.927604
1264.000000	100.922111
1263.000000	100.915641
1262.000000	100.913452
1261.000000	100.916992
1260.000000	100.922872
1259.000000	100.926558
1258.000000	100.926332
1257.000000	100.923808
1256.000000	100.921686
1255.000000	100.921257
1254.000000	100.921378
1253.000000	100.919736
1252.000000	100.915491
1251.000000	100.910462
1250.000000	100.907231
1249.000000	100.906179
1248.000000	100.904845
1247.000000	100.900089
1246.000000	100.890777
1245.000000	100.878939
1244.000000	100.868632
1243.000000	100.862738
1242.000000	100.860120
1241.000000	100.856700
1240.000000	100.849936
1239.000000	100.841337
1238.000000	100.833954
1237.000000	100.828568
1236.000000	100.823472
1235.000000	100.816978
1234.000000	100.808585
1233.000000	100.798255
1232.000000	100.785924
1231.000000	100.771550
1230.000000	100.754735
1229.000000	100.734770
1228.000000	100.711907
1227.000000	100.687762
1226.000000	100.663204
1225.000000	100.636659
1224.000000	100.605996
1223.000000	100.571229
1222.000000	100.533518
1221.000000	100.492089
1220.000000	100.444578
1219.000000	100.390985
1218.000000	100.335415
1217.000000	100.282534
1216.000000	100.232620
1215.000000	100.180623
1214.000000	100.120146
1213.000000	100.048747
1212.000000	99.969957
1211.000000	99.890425
1210.000000	99.815402
1209.000000	99.747245
1208.000000	99.686356
1207.000000	99.630327
1206.000000	99.572573
1205.000000	99.506077
1204.000000	99.430283
1203.000000	99.352122
1202.000000	99.278976
1201.000000	99.212257
1200.000000	99.148434
1199.000000	99.083644
1198.000000	99.016123
1197.000000	98.946620
1196.000000	98.877639
1195.000000	98.810310
1194.000000	98.741728
1193.000000	98.668088
1192.000000	98.590474
1191.000000	98.513931
1190.000000	98.440137
1189.000000	98.365009
1188.000000	98.284873
1187.000000	98.201235
1186.000000	98.117937
1185.000000	98.037081
1184.000000	97.959058
1183.000000	97.882698
1182.000000	97.803807
1181.000000	97.717537
1180.000000	97.623883
1179.000000	97.527219
1178.000000	97.429469
1177.000000	97.328308
1176.000000	97.223339
1175.000000	97.118302
1174.000000	97.014519
1173.000000	96.907684
1172.000000	96.794766
1171.000000	96.679456
1170.000000	96.567040
1169.000000	96.458021
1168.000000	96.350593
1167.000000	96.246362
1166.000000	96.151127
1165.000000	96.073259
1164.000000	96.022370
1163.000000	96.004162
1162.000000	96.013665
1161.000000	96.037267
1160.000000	96.062735
1159.000000	96.082930
1158.000000	96.090507
1157.000000	96.076876
1156.000000	96.038804
1155.000000	95.980403
1154.000000	95.906714
1153.000000	95.820624
1152.000000	95.727383
1151.000000	95.635144
1150.000000	95.547866
1149.000000	95.463592
1148.000000	95.381744
1147.000000	95.304735
1146.000000	95.229859
1145.000000	95.148158
1144.000000	95.055843
1143.000000	94.959602
1142.000000	94.866287
1141.000000	94.774410
1140.000000	94.680510
1139.000000	94.586221
1138.000000	94.493126
1137.000000	94.397159
1136.000000	94.294222
1135.000000	94.186089
1134.000000	94.076019
1133.000000	93.964181
1132.000000	93.851765
1131.000000	93.742901
1130.000000	93.637190
1129.000000	93.526670
1128.000000	93.405690
1127.000000	93.278254
1126.000000	93.150905
1125.000000	93.024218
1124.000000	92.896277
1123.000000	92.768474
1122.000000	92.642652
1121.000000	92.517995
1120.000000	92.395293
1119.000000	92.278677
1118.000000	92.169284
1117.000000	92.063296
1116.000000	91.959399
1115.000000	91.861327
1114.000000	91.769794
1113.000000	91.679482
1112.000000	91.587376
1111.000000	91.496276
1110.000000	91.407157
1109.000000	91.316581
1108.000000	91.224279
1107.000000	91.133948
1106.000000	91.043721
1105.000000	90.946037
1104.000000	90.840464
1103.000000	90.736462
1102.000000	90.639917
1101.000000	90.547161
1100.000000	90.455270
1099.000000	90.366301
1098.000000	90.277236
1097.000000	90.178512
1096.000000	90.068622
1095.000000	89.959178
1094.000000	89.859480
1093.000000	89.766449
1092.000000	89.674964
1091.000000	89.586826
1090.000000	89.503629
1089.000000	89.421742
1088.000000	89.340501
1087.000000	89.265236
1086.000000	89.196666
1085.000000	89.127119
1084.000000	89.051943
1083.000000	88.974713
1082.000000	88.897563
1081.000000	88.817252
1080.000000	88.734264
1079.000000	88.653869
1078.000000	88.573932
1077.000000	88.483781
1076.000000	88.379837
1075.000000	88.270481
1074.000000	88.160909
1073.000000	88.044603
1072.000000	87.913773
1071.000000	87.766280
1070.000000	87.598964
1069.000000	87.407116
1068.000000	87.194821
1067.000000	86.973583
1066.000000	86.746792
1065.000000	86.508546
1064.000000	86.261321
1063.000000	86.019582
1062.000000	85.790663
1061.000000	85.567110
1060.000000	85.343364
1059.000000	85.124480
1058.000000	84.912656
1057.000000	84.700767
1056.000000	84.485292
1055.000000	84.269980
1054.000000	84.050706
1053.000000	83.813332
1052.000000	83.554553
1051.000000	83.288551
1050.000000	83.024584
1049.000000	82.756326
1048.000000	82.481425
1047.000000	82.209636
1046.000000	81.942566
1045.000000	81.666671
1044.000000	81.375601
1043.000000	81.081969
1042.000000	80.799127
1041.000000	80.527325
1040.000000	80.264574
1039.000000	80.014283
1038.000000	79.774969
1037.000000	79.539236
1036.000000	79.309936
1035.000000	79.100980
1034.000000	78.916481
1033.000000	78.745835
1032.000000	78.583457
1031.000000	78.434859
1030.000000	78.299295
1029.000000	78.167153
1028.000000	78.039971
1027.000000	77.932154
1026.000000	77.846289
1025.000000	77.766586
1024.000000	77.682829
1023.000000	77.601043
1022.000000	77.524846
1021.000000	77.447067
1020.000000	77.366215
1019.000000	77.291095
1018.000000	77.222611
1017.000000	77.150464
1016.000000	77.073140
1015.000000	77.001097
1014.000000	76.935371
1013.000000	76.864368
1012.000000	76.787628
1011.000000	76.721366
1010.000000	76.673795
1009.000000	76.635372
1008.000000	76.599298
1007.000000	76.571015
1006.000000	76.551385
1005.000000	76.531866
1004.000000	76.513556
1003.000000	76.510758
1002.000000	76.528484
1001.000000	76.555664
1000.000000	76.586611
999.000000	76.629500
998.000000	76.687290
997.000000	76.750278
996.000000	76.814213
995.000000	76.886700
994.000000	76.969392
993.000000	77.053097
992.000000	77.136808
991.000000	77.232347
990.000000	77.343371
989.000000	77.458334
988.000000	77.570891
987.000000	77.689693
986.000000	77.821895
985.000000	77.964758
984.000000	78.119181
983.000000	78.293469
982.000000	78.487333
981.000000	78.689354
980.000000	78.896497
979.000000	79.119585
978.000000	79.363590
977.000000	79.618792
976.000000	79.877012
975.000000	80.141126
974.000000	80.413231
973.000000	80.688589
972.000000	80.966604
971.000000	81.253532
970.000000	81.549216
969.000000	81.844016
968.000000	82.132409
967.000000	82.417049
966.000000	82.697502
965.000000	82.968885
964.000000	83.233776
963.000000	83.501029
962.000000	83.769619
961.000000	84.027588
960.000000	84.270402
959.000000	84.506907
958.000000	84.743511
957.000000	84.975293
956.000000	85.196749
955.000000	85.408991
954.000000	85.612059
953.000000	85.801372
952.000000	85.976175
951.000000	86.141918
950.000000	86.301441
949.000000	86.452482
948.000000	86.594468
947.000000	86.727837
946.000000	86.847007
945.000000	86.945907
944.000000	87.031199
943.000000	87.118119
942.000000	87.211669
941.000000	87.303603
940.000000	87.389023
939.000000	87.472875
938.000000	87.557863
937.000000	87.638945
936.000000	87.713472
935.000000	87.785657
934.000000	87.858113
933.000000	87.929578
932.000000	88.002841
931.000000	88.083542
930.000000	88.169077
929.000000	88.249862
928.000000	88.323043
927.000000	88.393514
926.000000	88.460542
925.000000	88.516057
924.000000	88.558005
923.000000	88.592935
922.000000	88.623373
921.000000	88.645074
920.000000	88.658723
919.000000	88.671468
918.000000	88.684733
917.000000	88.693816
916.000000	88.701790
915.000000	88.719522
914.000000	88.749271
913.000000	88.784262
912.000000	88.829577
911.000000	88.907020
910.000000	89.030867
909.000000	89.192023
908.000000	89.373677
907.000000	89.571086
906.000000	89.788359
905.000000	90.026536
904.000000	90.282965
903.000000	90.554526
902.000000	90.835421
901.000000	91.117950
900.000000	91.398665
899.000000	91.677799
898.000000	91.952092
897.000000	92.215406
896.000000	92.466165
895.000000	92.706453
894.000000	92.934974
893.000000	93.149651
892.000000	93.355394
891.000000	93.558764
890.000000	93.755594
889.000000	93.934927
888.000000	94.095242
887.000000	94.245679
886.000000	94.390904
885.000000	94.526828
884.000000	94.652615
883.000000	94.773578
882.000000	94.888898
881.000000	94.990260
880.000000	95.078502
879.000000	95.169025
878.000000	95.273021
877.000000	95.384449
876.000000	95.494384
875.000000	95.608403
874.000000	95.740499
873.000000	95.896844
872.000000	96.072943
871.000000	96.260168
870.000000	96.448561
869.000000	96.628750
868.000000	96.797149
867.000000	96.956679
866.000000	97.110059
865.000000	97.256223
864.000000	97.394693
863.000000	97.528237
862.000000	97.659060
861.000000	97.786934
860.000000	97.912588
859.000000	98.038077
858.000000	98.162732
857.000000	98.284113
856.000000	98.403747
855.000000	98.525667
854.000000	98.647843
853.000000	98.761527
852.000000	98.861227
851.000000	98.949383
850.000000	99.029496
849.000000	99.101184
848.000000	99.164512
847.000000	99.222324
846.000000	99.274432
845.000000	99.315365
844.000000	99.341925
843.000000	99.357925
842.000000	99.367584
841.000000	99.368919
840.000000	99.357457
839.000000	99.332289
838.000000	99.295233
837.000000	99.248711
836.000000	99.198270
835.000000	99.152828
834.000000	99.118218
833.000000	99.093816
832.000000	99.077976
831.000000	99.071410
830.000000	99.072061
829.000000	99.073672
828.000000	99.075638
827.000000	99.088853
826.000000	99.124287
825.000000	99.179010
824.000000	99.239669
823.000000	99.295483
822.000000	99.341133
821.000000	99.371696
820.000000	99.383272
819.000000	99.377356
818.000000	99.358872
817.000000	99.329983
816.000000	99.288586
815.000000	99.231565
814.000000	99.156244
813.000000	99.058258
812.000000	98.928918
811.000000	98.754190
810.000000	98.517528
809.000000	98.208220
808.000000	97.829778
807.000000	97.398290
806.000000	96.931305
805.000000	96.442181
804.000000	95.947248
803.000000	95.471583
802.000000	95.041750
801.000000	94.676925
800.000000	94.390224
799.000000	94.191250
798.000000	94.081734
797.000000	94.053491
796.000000	94.092797
795.000000	94.181342
794.000000	94.294849
793.000000	94.411385
792.000000	94.522535
791.000000	94.628248
790.000000	94.721190
789.000000	94.785600
788.000000	94.811390
787.000000	94.798721
786.000000	94.747243
785.000000	94.651773
784.000000	94.513042
783.000000	94.344830
782.000000	94.167136
781.000000	94.000008
780.000000	93.866027
779.000000	93.787568
778.000000	93.774553
777.000000	93.820687
776.000000	93.914024
775.000000	94.044034
774.000000	94.198511
773.000000	94.364420
772.000000	94.534454
771.000000	94.703891
770.000000	94.860076
769.000000	94.985497
768.000000	95.073927
767.000000	95.134675
766.000000	95.179014
765.000000	95.211562
764.000000	95.236763
763.000000	95.262395
762.000000	95.291516
761.000000	95.320387
760.000000	95.349551
759.000000	95.388104
758.000000	95.441400
757.000000	95.502632
756.000000	95.562069
755.000000	95.617213
754.000000	95.669234
753.000000	95.717665
752.000000	95.764790
751.000000	95.818208
750.000000	95.882045
749.000000	95.950577
748.000000	96.016639
747.000000	96.082462
746.000000	96.157143
745.000000	96.246785
744.000000	96.351142
743.000000	96.466442
742.000000	96.587952
741.000000	96.712750
740.000000	96.842283
739.000000	96.979273
738.000000	97.121043
737.000000	97.259899
736.000000	97.390870
735.000000	97.513750
734.000000	97.626313
733.000000	97.721243
732.000000	97.792606
731.000000	97.842272
730.000000	97.878592
729.000000	97.911134
728.000000	97.946042
727.000000	97.982564
726.000000	98.014894
725.000000	98.041816
724.000000	98.073023
723.000000	98.120223
722.000000	98.183369
721.000000	98.252251
720.000000	98.320613
719.000000	98.390267
718.000000	98.460221
717.000000	98.520715
716.000000	98.562176
715.000000	98.585114
714.000000	98.598946
713.000000	98.614241
712.000000	98.635872
711.000000	98.659087
710.000000	98.672434
709.000000	98.669487
708.000000	98.656798
707.000000	98.644457
706.000000	98.629907
705.000000	98.597863
704.000000	98.534806
703.000000	98.435964
702.000000	98.299751
701.000000	98.124588
700.000000	97.911555
699.000000	97.663513
698.000000	97.385760
697.000000	97.099806
696.000000	96.853257
695.000000	96.697835
694.000000	96.652279
693.000000	96.694639
692.000000	96.788388
691.000000	96.905736
690.000000	97.028153
689.000000	97.142750
688.000000	97.247156
687.000000	97.346808
686.000000	97.440487
685.000000	97.517768
684.000000	97.573944
683.000000	97.616718
682.000000	97.655546
681.000000	97.694933
680.000000	97.739921
679.000000	97.795757
678.000000	97.858474
677.000000	97.916564
676.000000	97.966665
675.000000	98.018119
674.000000	98.077090
673.000000	98.137940
672.000000	98.194944
671.000000	98.252481
670.000000	98.318567
669.000000	98.397628
668.000000	98.487623
667.000000	98.568947
666.000000	98.621276
665.000000	98.650948
664.000000	98.679265
663.000000	98.724931
662.000000	98.788239
661.000000	98.850821
660.000000	98.900906
659.000000	98.944117
658.000000	98.982519
657.000000	99.001338
656.000000	98.990089
655.000000	98.962991
654.000000	98.941671
653.000000	98.928813
652.000000	98.917222
651.000000	98.913129
650.000000	98.927602
649.000000	98.953493
648.000000	98.973603
647.000000	98.988662
646.000000	99.019204
645.000000	99.079349
644.000000	99.161749
643.000000	99.247963
642.000000	99.324731
641.000000	99.391665
640.000000	99.457518
639.000000	99.529884
638.000000	99.610514
637.000000	99.701571
636.000000	99.806207
635.000000	99.910871
634.000000	99.980101
633.000000	99.992921
632.000000	99.978013
631.000000	99.991516
630.000000	100.058797
629.000000	100.157578
628.000000	100.261649
627.000000	100.373373
626.000000	100.501133
625.000000	100.629388
624.000000	100.730848
623.000000	100.794740
622.000000	100.830903
621.000000	100.857305
620.000000	100.891466
619.000000	100.941122
618.000000	100.992720
617.000000	101.022283
616.000000	101.022898
615.000000	101.006775
614.000000	100.981437
613.000000	100.945286
612.000000	100.907456
611.000000	100.881063
610.000000	100.848642
609.000000	100.770182
608.000000	100.639427
607.000000	100.499879
606.000000	100.387838
605.000000	100.295397
604.000000	100.217543
603.000000	100.188539
602.000000	100.228549
601.000000	100.291527
600.000000	100.308986
599.000000	100.264825
598.000000	100.194112
597.000000	100.125139
596.000000	100.062800
595.000000	100.019222
594.000000	100.015276
593.000000	100.048879
592.000000	100.091606
591.000000	100.118759
590.000000	100.128718
589.000000	100.137079
588.000000	100.164290
587.000000	100.220806
586.000000	100.293359
585.000000	100.359497
584.000000	100.419181
583.000000	100.492037
582.000000	100.584692
581.000000	100.689846
580.000000	100.813904
579.000000	100.961938
578.000000	101.099660
577.000000	101.182917
576.000000	101.223528
575.000000	101.274314
574.000000	101.339754
573.000000	101.363032
572.000000	101.316742
571.000000	101.240448
570.000000	101.171102
569.000000	101.098278
568.000000	101.022913
567.000000	100.985729
566.000000	100.991011
565.000000	100.983534
564.000000	100.948881
563.000000	100.950833
562.000000	101.014594
561.000000	101.058371
560.000000	101.009077
559.000000	100.903378
558.000000	100.810646
557.000000	100.724389
556.000000	100.616348
555.000000	100.532979
554.000000	100.535421
553.000000	100.598042
552.000000	100.658705
551.000000	100.719861
550.000000	100.818451
