PE IR       SUBTECH     SPECTRUM    ASCII       PEDS        4.00        
   -1
BH1 8-1 2 70_1.asc
24/05/17
13:59:49.00
24/05/17
14:00:07.00
Administrator
?品 152 用? Administrator 日期 Friday, May 17 2024
550.000000
#HDR
-1
-1
#GR
cm-1
%T
1.0
0.0
4000.000000
-1.000000
3451
8
101.817385
86.174893
#DATA
4000.000000	101.715121
3999.000000	101.713963
3998.000000	101.712845
3997.000000	101.711749
3996.000000	101.710648
3995.000000	101.709533
3994.000000	101.708425
3993.000000	101.707357
3992.000000	101.706363
3991.000000	101.705450
3990.000000	101.704600
3989.000000	101.703796
3988.000000	101.703029
3987.000000	101.702289
3986.000000	101.701571
3985.000000	101.700867
3984.000000	101.700170
3983.000000	101.699490
3982.000000	101.698854
3981.000000	101.698283
3980.000000	101.697758
3979.000000	101.697232
3978.000000	101.696664
3977.000000	101.696053
3976.000000	101.695449
3975.000000	101.694932
3974.000000	101.694550
3973.000000	101.694282
3972.000000	101.694059
3971.000000	101.693810
3970.000000	101.693494
3969.000000	101.693104
3968.000000	101.692676
3967.000000	101.692316
3966.000000	101.692119
3965.000000	101.692085
3964.000000	101.692126
3963.000000	101.692135
3962.000000	101.692080
3961.000000	101.691998
3960.000000	101.691954
3959.000000	101.691995
3958.000000	101.692116
3957.000000	101.692252
3956.000000	101.692316
3955.000000	101.692268
3954.000000	101.692136
3953.000000	101.691998
3952.000000	101.691931
3951.000000	101.691969
3950.000000	101.692095
3949.000000	101.692250
3948.000000	101.692371
3947.000000	101.692444
3946.000000	101.692505
3945.000000	101.692598
3944.000000	101.692707
3943.000000	101.692758
3942.000000	101.692687
3941.000000	101.692510
3940.000000	101.692305
3939.000000	101.692136
3938.000000	101.692003
3937.000000	101.691863
3936.000000	101.691708
3935.000000	101.691610
3934.000000	101.691647
3933.000000	101.691756
3932.000000	101.691703
3931.000000	101.691275
3930.000000	101.690490
3929.000000	101.689662
3928.000000	101.689233
3927.000000	101.689477
3926.000000	101.690208
3925.000000	101.690785
3924.000000	101.690709
3923.000000	101.690167
3922.000000	101.689819
3921.000000	101.690007
3920.000000	101.690345
3919.000000	101.690206
3918.000000	101.689596
3917.000000	101.689278
3916.000000	101.689953
3915.000000	101.691590
3914.000000	101.693479
3913.000000	101.694766
3912.000000	101.695019
3911.000000	101.694472
3910.000000	101.693785
3909.000000	101.693461
3908.000000	101.693564
3907.000000	101.693902
3906.000000	101.694303
3905.000000	101.694520
3904.000000	101.694179
3903.000000	101.693159
3902.000000	101.691823
3901.000000	101.690641
3900.000000	101.689658
3899.000000	101.688656
3898.000000	101.687762
3897.000000	101.687524
3896.000000	101.688220
3895.000000	101.689448
3894.000000	101.690375
3893.000000	101.690510
3892.000000	101.690129
3891.000000	101.689980
3890.000000	101.690558
3889.000000	101.691815
3888.000000	101.693572
3887.000000	101.695562
3886.000000	101.696925
3885.000000	101.696761
3884.000000	101.695075
3883.000000	101.692706
3882.000000	101.690713
3881.000000	101.689736
3880.000000	101.689692
3879.000000	101.689960
3878.000000	101.689807
3877.000000	101.688961
3876.000000	101.687898
3875.000000	101.687312
3874.000000	101.687391
3873.000000	101.687848
3872.000000	101.688521
3871.000000	101.689431
3870.000000	101.690232
3869.000000	101.690480
3868.000000	101.690245
3867.000000	101.689959
3866.000000	101.689752
3865.000000	101.689199
3864.000000	101.688005
3863.000000	101.686715
3862.000000	101.686175
3861.000000	101.686745
3860.000000	101.688226
3859.000000	101.690072
3858.000000	101.691616
3857.000000	101.692354
3856.000000	101.692299
3855.000000	101.692037
3854.000000	101.692031
3853.000000	101.692357
3852.000000	101.692963
3851.000000	101.693576
3850.000000	101.693896
3849.000000	101.693831
3848.000000	101.693525
3847.000000	101.693293
3846.000000	101.693357
3845.000000	101.693716
3844.000000	101.694232
3843.000000	101.694775
3842.000000	101.695233
3841.000000	101.695480
3840.000000	101.695367
3839.000000	101.694873
3838.000000	101.694367
3837.000000	101.694359
3836.000000	101.694986
3835.000000	101.695996
3834.000000	101.697116
3833.000000	101.698225
3832.000000	101.699155
3831.000000	101.699637
3830.000000	101.699502
3829.000000	101.698903
3828.000000	101.698355
3827.000000	101.698388
3826.000000	101.699049
3825.000000	101.699855
3824.000000	101.700259
3823.000000	101.700108
3822.000000	101.699468
3821.000000	101.698395
3820.000000	101.697191
3819.000000	101.696228
3818.000000	101.695943
3817.000000	101.696682
3816.000000	101.698142
3815.000000	101.699762
3814.000000	101.701430
3813.000000	101.703196
3812.000000	101.704766
3811.000000	101.705557
3810.000000	101.705198
3809.000000	101.703957
3808.000000	101.702504
3807.000000	101.701410
3806.000000	101.700991
3805.000000	101.701201
3804.000000	101.701648
3803.000000	101.701880
3802.000000	101.701384
3801.000000	101.700251
3800.000000	101.699611
3799.000000	101.700298
3798.000000	101.702140
3797.000000	101.704225
3796.000000	101.705641
3795.000000	101.706175
3794.000000	101.706102
3793.000000	101.705471
3792.000000	101.703961
3791.000000	101.701583
3790.000000	101.699164
3789.000000	101.697864
3788.000000	101.698320
3787.000000	101.700347
3786.000000	101.703136
3785.000000	101.705660
3784.000000	101.707167
3783.000000	101.707650
3782.000000	101.707729
3781.000000	101.707849
3780.000000	101.707486
3779.000000	101.705712
3778.000000	101.702763
3777.000000	101.700416
3776.000000	101.700357
3775.000000	101.702535
3774.000000	101.705205
3773.000000	101.706765
3772.000000	101.707454
3771.000000	101.708747
3770.000000	101.711352
3769.000000	101.714499
3768.000000	101.717021
3767.000000	101.718346
3766.000000	101.718240
3765.000000	101.716303
3764.000000	101.712420
3763.000000	101.707469
3762.000000	101.702858
3761.000000	101.699455
3760.000000	101.697416
3759.000000	101.697125
3758.000000	101.699139
3757.000000	101.703095
3756.000000	101.707849
3755.000000	101.712544
3754.000000	101.716721
3753.000000	101.719151
3752.000000	101.717840
3751.000000	101.712836
3750.000000	101.707514
3749.000000	101.704490
3748.000000	101.702824
3747.000000	101.700809
3746.000000	101.698719
3745.000000	101.697022
3744.000000	101.695048
3743.000000	101.692904
3742.000000	101.691230
3741.000000	101.690119
3740.000000	101.689283
3739.000000	101.688806
3738.000000	101.689606
3737.000000	101.691955
3736.000000	101.693874
3735.000000	101.692750
3734.000000	101.688277
3733.000000	101.682345
3732.000000	101.676862
3731.000000	101.672542
3730.000000	101.669410
3729.000000	101.667459
3728.000000	101.666491
3727.000000	101.665522
3726.000000	101.663259
3725.000000	101.659423
3724.000000	101.654949
3723.000000	101.650935
3722.000000	101.647671
3721.000000	101.644668
3720.000000	101.641382
3719.000000	101.637966
3718.000000	101.635220
3717.000000	101.633825
3716.000000	101.633867
3715.000000	101.634712
3714.000000	101.634853
3713.000000	101.632144
3712.000000	101.625293
3711.000000	101.615688
3710.000000	101.606523
3709.000000	101.599869
3708.000000	101.595884
3707.000000	101.593948
3706.000000	101.593390
3705.000000	101.593206
3704.000000	101.591644
3703.000000	101.586721
3702.000000	101.578000
3701.000000	101.567687
3700.000000	101.558901
3699.000000	101.553200
3698.000000	101.550193
3697.000000	101.548383
3696.000000	101.546293
3695.000000	101.543405
3694.000000	101.539880
3693.000000	101.535791
3692.000000	101.531233
3691.000000	101.527035
3690.000000	101.523886
3689.000000	101.520349
3688.000000	101.513975
3687.000000	101.504519
3686.000000	101.494404
3685.000000	101.486114
3684.000000	101.479646
3683.000000	101.472573
3682.000000	101.462970
3681.000000	101.451345
3680.000000	101.439441
3679.000000	101.428499
3678.000000	101.419505
3677.000000	101.412840
3676.000000	101.405236
3675.000000	101.393350
3674.000000	101.379456
3673.000000	101.367800
3672.000000	101.360194
3671.000000	101.354238
3670.000000	101.344838
3669.000000	101.331676
3668.000000	101.319750
3667.000000	101.311901
3666.000000	101.306252
3665.000000	101.299114
3664.000000	101.288489
3663.000000	101.275464
3662.000000	101.262708
3661.000000	101.251213
3660.000000	101.239155
3659.000000	101.224245
3658.000000	101.207351
3657.000000	101.192699
3656.000000	101.183655
3655.000000	101.179143
3654.000000	101.174984
3653.000000	101.168595
3652.000000	101.161165
3651.000000	101.155040
3650.000000	101.149806
3649.000000	101.142542
3648.000000	101.131322
3647.000000	101.117016
3646.000000	101.101564
3645.000000	101.086071
3644.000000	101.070830
3643.000000	101.056060
3642.000000	101.042448
3641.000000	101.031361
3640.000000	101.024265
3639.000000	101.020570
3638.000000	101.016695
3637.000000	101.008911
3636.000000	100.997411
3635.000000	100.986025
3634.000000	100.977058
3633.000000	100.968499
3632.000000	100.957735
3631.000000	100.947620
3630.000000	100.945170
3629.000000	100.951640
3628.000000	100.959805
3627.000000	100.962675
3626.000000	100.959623
3625.000000	100.953805
3624.000000	100.947429
3623.000000	100.940870
3622.000000	100.935322
3621.000000	100.934225
3620.000000	100.940381
3619.000000	100.951643
3618.000000	100.961589
3617.000000	100.965924
3616.000000	100.967038
3615.000000	100.971203
3614.000000	100.981292
3613.000000	100.992834
3612.000000	100.998644
3611.000000	100.997031
3610.000000	100.993974
3609.000000	100.997258
3608.000000	101.008919
3607.000000	101.023764
3606.000000	101.034858
3605.000000	101.039341
3604.000000	101.039494
3603.000000	101.040288
3602.000000	101.045729
3601.000000	101.055645
3600.000000	101.065957
3599.000000	101.072496
3598.000000	101.074341
3597.000000	101.073745
3596.000000	101.073661
3595.000000	101.074797
3594.000000	101.074995
3593.000000	101.072049
3592.000000	101.066605
3591.000000	101.062161
3590.000000	101.062390
3589.000000	101.067636
3588.000000	101.073761
3587.000000	101.076422
3586.000000	101.075957
3585.000000	101.075714
3584.000000	101.077339
3583.000000	101.079349
3582.000000	101.079121
3581.000000	101.075538
3580.000000	101.069940
3579.000000	101.064789
3578.000000	101.061462
3577.000000	101.059569
3576.000000	101.058271
3575.000000	101.057717
3574.000000	101.058658
3573.000000	101.060760
3572.000000	101.061882
3571.000000	101.059576
3570.000000	101.053432
3569.000000	101.046001
3568.000000	101.041173
3567.000000	101.041018
3566.000000	101.044257
3565.000000	101.047636
3564.000000	101.048546
3563.000000	101.046344
3562.000000	101.042148
3561.000000	101.037839
3560.000000	101.034523
3559.000000	101.031709
3558.000000	101.028216
3557.000000	101.023739
3556.000000	101.019150
3555.000000	101.015277
3554.000000	101.011810
3553.000000	101.007838
3552.000000	101.003522
3551.000000	101.000609
3550.000000	101.000800
3549.000000	101.003884
3548.000000	101.007444
3547.000000	101.008555
3546.000000	101.006292
3545.000000	101.002430
3544.000000	100.999470
3543.000000	100.998192
3542.000000	100.997379
3541.000000	100.995544
3540.000000	100.992586
3539.000000	100.989733
3538.000000	100.988151
3537.000000	100.987909
3536.000000	100.988294
3535.000000	100.988694
3534.000000	100.989000
3533.000000	100.989336
3532.000000	100.989756
3531.000000	100.990169
3530.000000	100.990431
3529.000000	100.990657
3528.000000	100.991422
3527.000000	100.993257
3526.000000	100.995786
3525.000000	100.997758
3524.000000	100.998382
3523.000000	100.998301
3522.000000	100.998648
3521.000000	100.999457
3520.000000	100.999700
3519.000000	100.998676
3518.000000	100.996745
3517.000000	100.994821
3516.000000	100.993661
3515.000000	100.993656
3514.000000	100.994696
3513.000000	100.995928
3512.000000	100.996095
3511.000000	100.994614
3510.000000	100.992252
3509.000000	100.990444
3508.000000	100.989907
3507.000000	100.990277
3506.000000	100.990902
3505.000000	100.991619
3504.000000	100.992691
3503.000000	100.994189
3502.000000	100.995660
3501.000000	100.996398
3500.000000	100.996024
3499.000000	100.994906
3498.000000	100.994060
3497.000000	100.994360
3496.000000	100.995733
3495.000000	100.997123
3494.000000	100.997441
3493.000000	100.996527
3492.000000	100.995082
3491.000000	100.993916
3490.000000	100.993187
3489.000000	100.992486
3488.000000	100.991488
3487.000000	100.990418
3486.000000	100.989872
3485.000000	100.990239
3484.000000	100.991328
3483.000000	100.992444
3482.000000	100.992945
3481.000000	100.992709
3480.000000	100.992001
3479.000000	100.990979
3478.000000	100.989544
3477.000000	100.987719
3476.000000	100.985916
3475.000000	100.984598
3474.000000	100.983748
3473.000000	100.982923
3472.000000	100.981851
3471.000000	100.980771
3470.000000	100.980050
3469.000000	100.979624
3468.000000	100.979003
3467.000000	100.977837
3466.000000	100.976315
3465.000000	100.974918
3464.000000	100.973901
3463.000000	100.973151
3462.000000	100.972472
3461.000000	100.971777
3460.000000	100.970995
3459.000000	100.969973
3458.000000	100.968702
3457.000000	100.967555
3456.000000	100.967024
3455.000000	100.967111
3454.000000	100.967088
3453.000000	100.966094
3452.000000	100.963906
3451.000000	100.961089
3450.000000	100.958612
3449.000000	100.957179
3448.000000	100.956930
3447.000000	100.957459
3446.000000	100.958105
3445.000000	100.958410
3444.000000	100.958247
3443.000000	100.957614
3442.000000	100.956527
3441.000000	100.955205
3440.000000	100.954151
3439.000000	100.953678
3438.000000	100.953359
3437.000000	100.952317
3436.000000	100.950265
3435.000000	100.947941
3434.000000	100.946208
3433.000000	100.944906
3432.000000	100.943106
3431.000000	100.940332
3430.000000	100.937086
3429.000000	100.934237
3428.000000	100.932412
3427.000000	100.932019
3426.000000	100.933202
3425.000000	100.935345
3424.000000	100.936993
3423.000000	100.936863
3422.000000	100.934957
3421.000000	100.932524
3420.000000	100.930941
3419.000000	100.930641
3418.000000	100.931016
3417.000000	100.931103
3416.000000	100.930426
3415.000000	100.929424
3414.000000	100.929078
3413.000000	100.929950
3412.000000	100.931587
3411.000000	100.933027
3410.000000	100.933829
3409.000000	100.934417
3408.000000	100.935351
3407.000000	100.936374
3406.000000	100.936321
3405.000000	100.934056
3404.000000	100.929613
3403.000000	100.924553
3402.000000	100.921018
3401.000000	100.920051
3400.000000	100.920876
3399.000000	100.921846
3398.000000	100.922246
3397.000000	100.923052
3396.000000	100.925691
3395.000000	100.930239
3394.000000	100.935073
3393.000000	100.938302
3392.000000	100.939424
3391.000000	100.939384
3390.000000	100.939373
3389.000000	100.939915
3388.000000	100.940973
3387.000000	100.942405
3386.000000	100.944134
3385.000000	100.946209
3384.000000	100.948865
3383.000000	100.952190
3382.000000	100.955578
3381.000000	100.957895
3380.000000	100.958581
3379.000000	100.958395
3378.000000	100.958733
3377.000000	100.960202
3376.000000	100.962134
3375.000000	100.963387
3374.000000	100.963376
3373.000000	100.962418
3372.000000	100.961547
3371.000000	100.961931
3370.000000	100.964101
3369.000000	100.967584
3368.000000	100.971244
3367.000000	100.974278
3366.000000	100.976777
3365.000000	100.979149
3364.000000	100.981346
3363.000000	100.982921
3362.000000	100.983734
3361.000000	100.984294
3360.000000	100.985307
3359.000000	100.986996
3358.000000	100.988986
3357.000000	100.990733
3356.000000	100.991956
3355.000000	100.992705
3354.000000	100.993178
3353.000000	100.993616
3352.000000	100.994321
3351.000000	100.995582
3350.000000	100.997451
3349.000000	100.999592
3348.000000	101.001466
3347.000000	101.002743
3346.000000	101.003507
3345.000000	101.004143
3344.000000	101.005031
3343.000000	101.006252
3342.000000	101.007503
3341.000000	101.008336
3340.000000	101.008579
3339.000000	101.008516
3338.000000	101.008625
3337.000000	101.009202
3336.000000	101.010340
3335.000000	101.012162
3334.000000	101.014776
3333.000000	101.017999
3332.000000	101.021268
3331.000000	101.023901
3330.000000	101.025429
3329.000000	101.025711
3328.000000	101.025059
3327.000000	101.024313
3326.000000	101.024410
3325.000000	101.025725
3324.000000	101.027854
3323.000000	101.029955
3322.000000	101.031405
3321.000000	101.032072
3320.000000	101.032183
3319.000000	101.032172
3318.000000	101.032517
3317.000000	101.033478
3316.000000	101.034924
3315.000000	101.036489
3314.000000	101.037921
3313.000000	101.039198
3312.000000	101.040384
3311.000000	101.041520
3310.000000	101.042641
3309.000000	101.043760
3308.000000	101.044853
3307.000000	101.045980
3306.000000	101.047424
3305.000000	101.049528
3304.000000	101.052325
3303.000000	101.055359
3302.000000	101.057961
3301.000000	101.059780
3300.000000	101.061033
3299.000000	101.062236
3298.000000	101.063655
3297.000000	101.065069
3296.000000	101.066128
3295.000000	101.066786
3294.000000	101.067273
3293.000000	101.067797
3292.000000	101.068472
3291.000000	101.069510
3290.000000	101.071215
3289.000000	101.073648
3288.000000	101.076408
3287.000000	101.078823
3286.000000	101.080464
3285.000000	101.081365
3284.000000	101.081917
3283.000000	101.082642
3282.000000	101.083906
3281.000000	101.085749
3280.000000	101.087902
3279.000000	101.089956
3278.000000	101.091605
3277.000000	101.092729
3276.000000	101.093349
3275.000000	101.093627
3274.000000	101.093861
3273.000000	101.094354
3272.000000	101.095256
3271.000000	101.096551
3270.000000	101.098166
3269.000000	101.099974
3268.000000	101.101709
3267.000000	101.103056
3266.000000	101.103944
3265.000000	101.104753
3264.000000	101.106078
3263.000000	101.108220
3262.000000	101.110889
3261.000000	101.113378
3260.000000	101.115103
3259.000000	101.115914
3258.000000	101.115983
3257.000000	101.115599
3256.000000	101.115131
3255.000000	101.115094
3254.000000	101.115976
3253.000000	101.117889
3252.000000	101.120449
3251.000000	101.123054
3250.000000	101.125306
3249.000000	101.127115
3248.000000	101.128512
3247.000000	101.129449
3246.000000	101.129788
3245.000000	101.129469
3244.000000	101.128741
3243.000000	101.128244
3242.000000	101.128651
3241.000000	101.130190
3240.000000	101.132562
3239.000000	101.135260
3238.000000	101.137928
3237.000000	101.140387
3236.000000	101.142497
3235.000000	101.144155
3234.000000	101.145385
3233.000000	101.146302
3232.000000	101.147068
3231.000000	101.147965
3230.000000	101.149439
3229.000000	101.151911
3228.000000	101.155418
3227.000000	101.159409
3226.000000	101.162901
3225.000000	101.165088
3224.000000	101.165878
3223.000000	101.165906
3222.000000	101.165951
3221.000000	101.166330
3220.000000	101.166991
3219.000000	101.167923
3218.000000	101.169214
3217.000000	101.170825
3216.000000	101.172631
3215.000000	101.174700
3214.000000	101.177162
3213.000000	101.179762
3212.000000	101.181901
3211.000000	101.183313
3210.000000	101.184433
3209.000000	101.185923
3208.000000	101.187973
3207.000000	101.190283
3206.000000	101.192492
3205.000000	101.194458
3204.000000	101.196187
3203.000000	101.197776
3202.000000	101.199394
3201.000000	101.201155
3200.000000	101.202994
3199.000000	101.204765
3198.000000	101.206463
3197.000000	101.208238
3196.000000	101.210151
3195.000000	101.211991
3194.000000	101.213510
3193.000000	101.214809
3192.000000	101.216301
3191.000000	101.218157
3190.000000	101.219979
3189.000000	101.221241
3188.000000	101.221954
3187.000000	101.222755
3186.000000	101.224208
3185.000000	101.226196
3184.000000	101.228097
3183.000000	101.229521
3182.000000	101.230643
3181.000000	101.231872
3180.000000	101.233499
3179.000000	101.235742
3178.000000	101.238753
3177.000000	101.242224
3176.000000	101.245249
3175.000000	101.247090
3174.000000	101.247937
3173.000000	101.248644
3172.000000	101.249692
3171.000000	101.250825
3170.000000	101.251735
3169.000000	101.252587
3168.000000	101.253702
3167.000000	101.255120
3166.000000	101.256691
3165.000000	101.258267
3164.000000	101.259564
3163.000000	101.260139
3162.000000	101.259791
3161.000000	101.258920
3160.000000	101.258351
3159.000000	101.258825
3158.000000	101.260614
3157.000000	101.263343
3156.000000	101.266115
3155.000000	101.268225
3154.000000	101.269885
3153.000000	101.271971
3152.000000	101.274990
3151.000000	101.278532
3150.000000	101.281732
3149.000000	101.284045
3148.000000	101.285569
3147.000000	101.286972
3146.000000	101.289118
3145.000000	101.292374
3144.000000	101.296103
3143.000000	101.299112
3142.000000	101.300851
3141.000000	101.301881
3140.000000	101.303104
3139.000000	101.304672
3138.000000	101.305982
3137.000000	101.306641
3136.000000	101.307030
3135.000000	101.307931
3134.000000	101.309740
3133.000000	101.312180
3132.000000	101.314637
3131.000000	101.316707
3130.000000	101.318430
3129.000000	101.320090
3128.000000	101.321909
3127.000000	101.323914
3126.000000	101.325983
3125.000000	101.327941
3124.000000	101.329686
3123.000000	101.331267
3122.000000	101.332842
3121.000000	101.334502
3120.000000	101.336205
3119.000000	101.337889
3118.000000	101.339591
3117.000000	101.341365
3116.000000	101.343174
3115.000000	101.344914
3114.000000	101.346523
3113.000000	101.348031
3112.000000	101.349525
3111.000000	101.351069
3110.000000	101.352684
3109.000000	101.354373
3108.000000	101.356115
3107.000000	101.357812
3106.000000	101.359338
3105.000000	101.360656
3104.000000	101.361854
3103.000000	101.363079
3102.000000	101.364384
3101.000000	101.365744
3100.000000	101.367171
3099.000000	101.368737
3098.000000	101.370459
3097.000000	101.372231
3096.000000	101.373880
3095.000000	101.375322
3094.000000	101.376606
3093.000000	101.377874
3092.000000	101.379230
3091.000000	101.380673
3090.000000	101.382130
3089.000000	101.383528
3088.000000	101.384835
3087.000000	101.386068
3086.000000	101.387254
3085.000000	101.388388
3084.000000	101.389439
3083.000000	101.390412
3082.000000	101.391362
3081.000000	101.392346
3080.000000	101.393362
3079.000000	101.394381
3078.000000	101.395408
3077.000000	101.396486
3076.000000	101.397629
3075.000000	101.398780
3074.000000	101.399842
3073.000000	101.400757
3072.000000	101.401532
3071.000000	101.402225
3070.000000	101.402920
3069.000000	101.403683
3068.000000	101.404542
3067.000000	101.405463
3066.000000	101.406351
3065.000000	101.407105
3064.000000	101.407706
3063.000000	101.408216
3062.000000	101.408740
3061.000000	101.409327
3060.000000	101.409958
3059.000000	101.410592
3058.000000	101.411223
3057.000000	101.411878
3056.000000	101.412557
3055.000000	101.413185
3054.000000	101.413654
3053.000000	101.413909
3052.000000	101.414015
3051.000000	101.414136
3050.000000	101.414418
3049.000000	101.414892
3048.000000	101.415438
3047.000000	101.415940
3046.000000	101.416432
3045.000000	101.417005
3044.000000	101.417597
3043.000000	101.418016
3042.000000	101.418220
3041.000000	101.418431
3040.000000	101.418823
3039.000000	101.419240
3038.000000	101.419465
3037.000000	101.419634
3036.000000	101.420063
3035.000000	101.420718
3034.000000	101.421212
3033.000000	101.421357
3032.000000	101.421324
3031.000000	101.421186
3030.000000	101.420656
3029.000000	101.419541
3028.000000	101.418198
3027.000000	101.417230
3026.000000	101.416837
3025.000000	101.416733
3024.000000	101.416772
3023.000000	101.417330
3022.000000	101.418806
3021.000000	101.420856
3020.000000	101.422473
3019.000000	101.422944
3018.000000	101.422620
3017.000000	101.422431
3016.000000	101.422637
3015.000000	101.422545
3014.000000	101.421535
3013.000000	101.419784
3012.000000	101.417834
3011.000000	101.416007
3010.000000	101.414643
3009.000000	101.414297
3008.000000	101.415025
3007.000000	101.415796
3006.000000	101.415341
3005.000000	101.413597
3004.000000	101.411784
3003.000000	101.411093
3002.000000	101.411647
3001.000000	101.412633
3000.000000	101.413132
2999.000000	101.412998
2998.000000	101.413128
2997.000000	101.414492
2996.000000	101.416525
2995.000000	101.417000
2994.000000	101.414239
2993.000000	101.409124
2992.000000	101.404173
2991.000000	101.400813
2990.000000	101.398602
2989.000000	101.397144
2988.000000	101.397481
2987.000000	101.400927
2986.000000	101.407126
2985.000000	101.413847
2984.000000	101.418622
2983.000000	101.420527
2982.000000	101.420649
2981.000000	101.421210
2980.000000	101.423831
2979.000000	101.428150
2978.000000	101.432004
2977.000000	101.433102
2976.000000	101.430714
2975.000000	101.426244
2974.000000	101.422405
2973.000000	101.421208
2972.000000	101.422103
2971.000000	101.422353
2970.000000	101.419871
2969.000000	101.415565
2968.000000	101.412236
2967.000000	101.411131
2966.000000	101.410351
2965.000000	101.407031
2964.000000	101.400394
2963.000000	101.392243
2962.000000	101.384868
2961.000000	101.378982
2960.000000	101.373756
2959.000000	101.368446
2958.000000	101.363714
2957.000000	101.361179
2956.000000	101.361774
2955.000000	101.365063
2954.000000	101.370290
2953.000000	101.377237
2952.000000	101.385162
2951.000000	101.391565
2950.000000	101.393525
2949.000000	101.390424
2948.000000	101.384545
2947.000000	101.379018
2946.000000	101.375892
2945.000000	101.375868
2944.000000	101.378156
2943.000000	101.380007
2942.000000	101.378101
2941.000000	101.371744
2940.000000	101.363978
2939.000000	101.358493
2938.000000	101.355927
2937.000000	101.353945
2936.000000	101.350118
2935.000000	101.343705
2934.000000	101.335413
2933.000000	101.326891
2932.000000	101.320277
2931.000000	101.316876
2930.000000	101.315797
2929.000000	101.314364
2928.000000	101.310202
2927.000000	101.303103
2926.000000	101.295476
2925.000000	101.291231
2924.000000	101.293303
2923.000000	101.301334
2922.000000	101.311928
2921.000000	101.321682
2920.000000	101.329575
2919.000000	101.336010
2918.000000	101.340782
2917.000000	101.343355
2916.000000	101.344530
2915.000000	101.346556
2914.000000	101.351650
2913.000000	101.361001
2912.000000	101.374326
2911.000000	101.389175
2910.000000	101.401495
2909.000000	101.408710
2908.000000	101.412179
2907.000000	101.415241
2906.000000	101.418926
2905.000000	101.421326
2904.000000	101.421458
2903.000000	101.421657
2902.000000	101.424994
2901.000000	101.431629
2900.000000	101.438935
2899.000000	101.444489
2898.000000	101.448001
2897.000000	101.451000
2896.000000	101.455452
2895.000000	101.461909
2894.000000	101.468188
2893.000000	101.470721
2892.000000	101.468261
2891.000000	101.463722
2890.000000	101.461383
2889.000000	101.462636
2888.000000	101.465623
2887.000000	101.468396
2886.000000	101.470785
2885.000000	101.473307
2884.000000	101.475963
2883.000000	101.478803
2882.000000	101.482417
2881.000000	101.486871
2880.000000	101.490804
2879.000000	101.492405
2878.000000	101.491060
2877.000000	101.487724
2876.000000	101.484161
2875.000000	101.482150
2874.000000	101.482713
2873.000000	101.485169
2872.000000	101.487337
2871.000000	101.487768
2870.000000	101.487777
2869.000000	101.490343
2868.000000	101.496656
2867.000000	101.504365
2866.000000	101.509471
2865.000000	101.509463
2864.000000	101.504500
2863.000000	101.496738
2862.000000	101.489278
2861.000000	101.484936
2860.000000	101.484712
2859.000000	101.486965
2858.000000	101.488375
2857.000000	101.486257
2856.000000	101.480441
2855.000000	101.473549
2854.000000	101.469570
2853.000000	101.471288
2852.000000	101.478325
2851.000000	101.487521
2850.000000	101.495750
2849.000000	101.502385
2848.000000	101.508594
2847.000000	101.515005
2846.000000	101.521155
2845.000000	101.526946
2844.000000	101.533137
2843.000000	101.539776
2842.000000	101.545263
2841.000000	101.548042
2840.000000	101.548717
2839.000000	101.549468
2838.000000	101.551523
2837.000000	101.554146
2836.000000	101.556280
2835.000000	101.558253
2834.000000	101.561289
2833.000000	101.565786
2832.000000	101.570596
2831.000000	101.573868
2830.000000	101.574407
2829.000000	101.572506
2828.000000	101.569921
2827.000000	101.568767
2826.000000	101.569970
2825.000000	101.572750
2824.000000	101.575696
2823.000000	101.578049
2822.000000	101.579640
2821.000000	101.580193
2820.000000	101.579659
2819.000000	101.579241
2818.000000	101.580918
2817.000000	101.585211
2816.000000	101.590113
2815.000000	101.593002
2814.000000	101.593420
2813.000000	101.593208
2812.000000	101.594101
2811.000000	101.596027
2810.000000	101.597887
2809.000000	101.599088
2808.000000	101.599891
2807.000000	101.600813
2806.000000	101.602123
2805.000000	101.603762
2804.000000	101.605436
2803.000000	101.606741
2802.000000	101.607426
2801.000000	101.607675
2800.000000	101.608056
2799.000000	101.609074
2798.000000	101.610784
2797.000000	101.612801
2796.000000	101.614579
2795.000000	101.615771
2794.000000	101.616422
2793.000000	101.616855
2792.000000	101.617309
2791.000000	101.617700
2790.000000	101.617840
2789.000000	101.617800
2788.000000	101.617936
2787.000000	101.618542
2786.000000	101.619548
2785.000000	101.620619
2784.000000	101.621555
2783.000000	101.622489
2782.000000	101.623621
2781.000000	101.624909
2780.000000	101.626131
2779.000000	101.627155
2778.000000	101.628035
2777.000000	101.628867
2776.000000	101.629627
2775.000000	101.630201
2774.000000	101.630558
2773.000000	101.630859
2772.000000	101.631374
2771.000000	101.632262
2770.000000	101.633444
2769.000000	101.634694
2768.000000	101.635792
2767.000000	101.636609
2766.000000	101.637098
2765.000000	101.637331
2764.000000	101.637548
2763.000000	101.638039
2762.000000	101.638890
2761.000000	101.639889
2760.000000	101.640735
2759.000000	101.641272
2758.000000	101.641522
2757.000000	101.641598
2756.000000	101.641749
2755.000000	101.642330
2754.000000	101.643530
2753.000000	101.645107
2752.000000	101.646511
2751.000000	101.647383
2750.000000	101.647828
2749.000000	101.648217
2748.000000	101.648804
2747.000000	101.649578
2746.000000	101.650375
2745.000000	101.651030
2744.000000	101.651449
2743.000000	101.651705
2742.000000	101.652057
2741.000000	101.652794
2740.000000	101.654028
2739.000000	101.655662
2738.000000	101.657515
2737.000000	101.659361
2736.000000	101.660885
2735.000000	101.661760
2734.000000	101.661837
2733.000000	101.661267
2732.000000	101.660449
2731.000000	101.659881
2730.000000	101.659954
2729.000000	101.660749
2728.000000	101.661981
2727.000000	101.663199
2726.000000	101.664113
2725.000000	101.664672
2724.000000	101.664895
2723.000000	101.664837
2722.000000	101.664721
2721.000000	101.664869
2720.000000	101.665323
2719.000000	101.665691
2718.000000	101.665567
2717.000000	101.665059
2716.000000	101.664754
2715.000000	101.665067
2714.000000	101.665846
2713.000000	101.666613
2712.000000	101.667095
2711.000000	101.667373
2710.000000	101.667604
2709.000000	101.667859
2708.000000	101.668180
2707.000000	101.668613
2706.000000	101.669068
2705.000000	101.669310
2704.000000	101.669200
2703.000000	101.668884
2702.000000	101.668668
2701.000000	101.668700
2700.000000	101.668856
2699.000000	101.668945
2698.000000	101.668918
2697.000000	101.668846
2696.000000	101.668770
2695.000000	101.668661
2694.000000	101.668504
2693.000000	101.668359
2692.000000	101.668306
2691.000000	101.668374
2690.000000	101.668504
2689.000000	101.668587
2688.000000	101.668562
2687.000000	101.668465
2686.000000	101.668354
2685.000000	101.668230
2684.000000	101.668066
2683.000000	101.667891
2682.000000	101.667766
2681.000000	101.667675
2680.000000	101.667523
2679.000000	101.667280
2678.000000	101.667026
2677.000000	101.666821
2676.000000	101.666585
2675.000000	101.666215
2674.000000	101.665739
2673.000000	101.665281
2672.000000	101.664928
2671.000000	101.664668
2670.000000	101.664442
2669.000000	101.664192
2668.000000	101.663888
2667.000000	101.663544
2666.000000	101.663195
2665.000000	101.662879
2664.000000	101.662606
2663.000000	101.662372
2662.000000	101.662166
2661.000000	101.661977
2660.000000	101.661791
2659.000000	101.661601
2658.000000	101.661412
2657.000000	101.661237
2656.000000	101.661080
2655.000000	101.660935
2654.000000	101.660792
2653.000000	101.660649
2652.000000	101.660509
2651.000000	101.660375
2650.000000	101.660251
2649.000000	101.660133
2648.000000	101.660019
2647.000000	101.659908
2646.000000	101.659804
2645.000000	101.659716
2644.000000	101.659652
2643.000000	101.659613
2642.000000	101.659594
2641.000000	101.659592
2640.000000	101.659598
2639.000000	101.659608
2638.000000	101.659614
2637.000000	101.659616
2636.000000	101.659625
2635.000000	101.659667
2634.000000	101.659763
2633.000000	101.659909
2632.000000	101.660069
2631.000000	101.660180
2630.000000	101.660190
2629.000000	101.660108
2628.000000	101.660030
2627.000000	101.660082
2626.000000	101.660345
2625.000000	101.660827
2624.000000	101.661449
2623.000000	101.662073
2622.000000	101.662561
2621.000000	101.662829
2620.000000	101.662862
2619.000000	101.662710
2618.000000	101.662549
2617.000000	101.662660
2616.000000	101.663152
2615.000000	101.663729
2614.000000	101.663929
2613.000000	101.663639
2612.000000	101.663153
2611.000000	101.662718
2610.000000	101.662321
2609.000000	101.662008
2608.000000	101.662039
2607.000000	101.662528
2606.000000	101.663228
2605.000000	101.663902
2604.000000	101.664581
2603.000000	101.665198
2602.000000	101.665292
2601.000000	101.664469
2600.000000	101.662982
2599.000000	101.661581
2598.000000	101.660867
2597.000000	101.661100
2596.000000	101.662397
2595.000000	101.664633
2594.000000	101.667157
2593.000000	101.669138
2592.000000	101.670202
2591.000000	101.670524
2590.000000	101.670400
2589.000000	101.670016
2588.000000	101.669598
2587.000000	101.669408
2586.000000	101.669518
2585.000000	101.669833
2584.000000	101.670260
2583.000000	101.670613
2582.000000	101.670506
2581.000000	101.669721
2580.000000	101.668628
2579.000000	101.667936
2578.000000	101.667984
2577.000000	101.668476
2576.000000	101.668852
2575.000000	101.668695
2574.000000	101.667899
2573.000000	101.666747
2572.000000	101.665860
2571.000000	101.665776
2570.000000	101.666439
2569.000000	101.667250
2568.000000	101.667608
2567.000000	101.667371
2566.000000	101.666820
2565.000000	101.666388
2564.000000	101.666359
2563.000000	101.666677
2562.000000	101.667001
2561.000000	101.667050
2560.000000	101.666888
2559.000000	101.666793
2558.000000	101.666899
2557.000000	101.667101
2556.000000	101.667254
2555.000000	101.667342
2554.000000	101.667458
2553.000000	101.667720
2552.000000	101.668177
2551.000000	101.668734
2550.000000	101.669191
2549.000000	101.669416
2548.000000	101.669456
2547.000000	101.669452
2546.000000	101.669514
2545.000000	101.669656
2544.000000	101.669852
2543.000000	101.670077
2542.000000	101.670310
2541.000000	101.670531
2540.000000	101.670732
2539.000000	101.670923
2538.000000	101.671119
2537.000000	101.671325
2536.000000	101.671553
2535.000000	101.671827
2534.000000	101.672152
2533.000000	101.672509
2532.000000	101.672875
2531.000000	101.673236
2530.000000	101.673582
2529.000000	101.673909
2528.000000	101.674221
2527.000000	101.674531
2526.000000	101.674851
2525.000000	101.675184
2524.000000	101.675526
2523.000000	101.675865
2522.000000	101.676196
2521.000000	101.676518
2520.000000	101.676840
2519.000000	101.677168
2518.000000	101.677508
2517.000000	101.677859
2516.000000	101.678212
2515.000000	101.678553
2514.000000	101.678868
2513.000000	101.679149
2512.000000	101.679390
2511.000000	101.679601
2510.000000	101.679809
2509.000000	101.680046
2508.000000	101.680318
2507.000000	101.680591
2506.000000	101.680821
2505.000000	101.680990
2504.000000	101.681105
2503.000000	101.681191
2502.000000	101.681283
2501.000000	101.681393
2500.000000	101.681483
2499.000000	101.681524
2498.000000	101.681577
2497.000000	101.681738
2496.000000	101.681995
2495.000000	101.682250
2494.000000	101.682465
2493.000000	101.682672
2492.000000	101.682825
2491.000000	101.682793
2490.000000	101.682588
2489.000000	101.682462
2488.000000	101.682607
2487.000000	101.682893
2486.000000	101.683116
2485.000000	101.683361
2484.000000	101.683839
2483.000000	101.684506
2482.000000	101.685114
2481.000000	101.685595
2480.000000	101.686063
2479.000000	101.686499
2478.000000	101.686713
2477.000000	101.686616
2476.000000	101.686356
2475.000000	101.686186
2474.000000	101.686285
2473.000000	101.686665
2472.000000	101.687154
2471.000000	101.687510
2470.000000	101.687680
2469.000000	101.687864
2468.000000	101.688210
2467.000000	101.688591
2466.000000	101.688807
2465.000000	101.688862
2464.000000	101.688839
2463.000000	101.688672
2462.000000	101.688351
2461.000000	101.688253
2460.000000	101.688882
2459.000000	101.690279
2458.000000	101.691909
2457.000000	101.693152
2456.000000	101.693835
2455.000000	101.694148
2454.000000	101.694306
2453.000000	101.694424
2452.000000	101.694568
2451.000000	101.694825
2450.000000	101.695281
2449.000000	101.695968
2448.000000	101.696829
2447.000000	101.697730
2446.000000	101.698528
2445.000000	101.699174
2444.000000	101.699711
2443.000000	101.700192
2442.000000	101.700624
2441.000000	101.701006
2440.000000	101.701380
2439.000000	101.701812
2438.000000	101.702327
2437.000000	101.702898
2436.000000	101.703484
2435.000000	101.704051
2434.000000	101.704568
2433.000000	101.705012
2432.000000	101.705379
2431.000000	101.705698
2430.000000	101.706014
2429.000000	101.706364
2428.000000	101.706759
2427.000000	101.707176
2426.000000	101.707586
2425.000000	101.707967
2424.000000	101.708312
2423.000000	101.708630
2422.000000	101.708932
2421.000000	101.709229
2420.000000	101.709526
2419.000000	101.709823
2418.000000	101.710112
2417.000000	101.710382
2416.000000	101.710632
2415.000000	101.710869
2414.000000	101.711104
2413.000000	101.711338
2412.000000	101.711560
2411.000000	101.711763
2410.000000	101.711945
2409.000000	101.712117
2408.000000	101.712291
2407.000000	101.712474
2406.000000	101.712669
2405.000000	101.712875
2404.000000	101.713092
2403.000000	101.713320
2402.000000	101.713561
2401.000000	101.713819
2400.000000	101.714098
2399.000000	101.714401
2398.000000	101.714727
2397.000000	101.715066
2396.000000	101.715404
2395.000000	101.715736
2394.000000	101.716062
2393.000000	101.716386
2392.000000	101.716709
2391.000000	101.717031
2390.000000	101.717354
2389.000000	101.717682
2388.000000	101.718018
2387.000000	101.718362
2386.000000	101.718709
2385.000000	101.719058
2384.000000	101.719410
2383.000000	101.719773
2382.000000	101.720155
2381.000000	101.720557
2380.000000	101.720969
2379.000000	101.721376
2378.000000	101.721774
2377.000000	101.722166
2376.000000	101.722558
2375.000000	101.722951
2374.000000	101.723345
2373.000000	101.723738
2372.000000	101.724122
2371.000000	101.724494
2370.000000	101.724852
2369.000000	101.725204
2368.000000	101.725553
2367.000000	101.725898
2366.000000	101.726228
2365.000000	101.726535
2364.000000	101.726812
2363.000000	101.727058
2362.000000	101.727273
2361.000000	101.727461
2360.000000	101.727627
2359.000000	101.727777
2358.000000	101.727910
2357.000000	101.728025
2356.000000	101.728112
2355.000000	101.728166
2354.000000	101.728187
2353.000000	101.728200
2352.000000	101.728229
2351.000000	101.728271
2350.000000	101.728292
2349.000000	101.728277
2348.000000	101.728255
2347.000000	101.728267
2346.000000	101.728295
2345.000000	101.728252
2344.000000	101.728086
2343.000000	101.727855
2342.000000	101.727622
2341.000000	101.727343
2340.000000	101.726947
2339.000000	101.726459
2338.000000	101.726032
2337.000000	101.725814
2336.000000	101.725824
2335.000000	101.725864
2334.000000	101.725671
2333.000000	101.725160
2332.000000	101.724465
2331.000000	101.723765
2330.000000	101.723093
2329.000000	101.722388
2328.000000	101.721618
2327.000000	101.720825
2326.000000	101.720124
2325.000000	101.719656
2324.000000	101.719469
2323.000000	101.719408
2322.000000	101.719164
2321.000000	101.718513
2320.000000	101.717459
2319.000000	101.716191
2318.000000	101.714918
2317.000000	101.713808
2316.000000	101.713028
2315.000000	101.712687
2314.000000	101.712707
2313.000000	101.712814
2312.000000	101.712701
2311.000000	101.712246
2310.000000	101.711570
2309.000000	101.710895
2308.000000	101.710331
2307.000000	101.709773
2306.000000	101.709062
2305.000000	101.708213
2304.000000	101.707427
2303.000000	101.706866
2302.000000	101.706492
2301.000000	101.706163
2300.000000	101.705806
2299.000000	101.705435
2298.000000	101.705028
2297.000000	101.704472
2296.000000	101.703664
2295.000000	101.702603
2294.000000	101.701421
2293.000000	101.700337
2292.000000	101.699513
2291.000000	101.698995
2290.000000	101.698687
2289.000000	101.698394
2288.000000	101.697926
2287.000000	101.697210
2286.000000	101.696332
2285.000000	101.695454
2284.000000	101.694655
2283.000000	101.693873
2282.000000	101.693026
2281.000000	101.692162
2280.000000	101.691420
2279.000000	101.690879
2278.000000	101.690470
2277.000000	101.690062
2276.000000	101.689598
2275.000000	101.689081
2274.000000	101.688510
2273.000000	101.687877
2272.000000	101.687190
2271.000000	101.686476
2270.000000	101.685782
2269.000000	101.685145
2268.000000	101.684561
2267.000000	101.683993
2266.000000	101.683411
2265.000000	101.682816
2264.000000	101.682213
2263.000000	101.681606
2262.000000	101.680998
2261.000000	101.680396
2260.000000	101.679810
2259.000000	101.679237
2258.000000	101.678674
2257.000000	101.678120
2256.000000	101.677582
2255.000000	101.677067
2254.000000	101.676574
2253.000000	101.676101
2252.000000	101.675643
2251.000000	101.675193
2250.000000	101.674746
2249.000000	101.674307
2248.000000	101.673885
2247.000000	101.673492
2246.000000	101.673128
2245.000000	101.672781
2244.000000	101.672438
2243.000000	101.672089
2242.000000	101.671733
2241.000000	101.671376
2240.000000	101.671028
2239.000000	101.670698
2238.000000	101.670385
2237.000000	101.670085
2236.000000	101.669799
2235.000000	101.669532
2234.000000	101.669284
2233.000000	101.669050
2232.000000	101.668828
2231.000000	101.668624
2230.000000	101.668443
2229.000000	101.668285
2228.000000	101.668149
2227.000000	101.668034
2226.000000	101.667931
2225.000000	101.667830
2224.000000	101.667731
2223.000000	101.667653
2222.000000	101.667619
2221.000000	101.667626
2220.000000	101.667656
2219.000000	101.667691
2218.000000	101.667719
2217.000000	101.667739
2216.000000	101.667753
2215.000000	101.667770
2214.000000	101.667800
2213.000000	101.667847
2212.000000	101.667907
2211.000000	101.667977
2210.000000	101.668053
2209.000000	101.668137
2208.000000	101.668230
2207.000000	101.668334
2206.000000	101.668447
2205.000000	101.668563
2204.000000	101.668676
2203.000000	101.668783
2202.000000	101.668888
2201.000000	101.669000
2200.000000	101.669128
2199.000000	101.669274
2198.000000	101.669430
2197.000000	101.669577
2196.000000	101.669703
2195.000000	101.669816
2194.000000	101.669933
2193.000000	101.670071
2192.000000	101.670231
2191.000000	101.670393
2190.000000	101.670519
2189.000000	101.670596
2188.000000	101.670667
2187.000000	101.670799
2186.000000	101.670992
2185.000000	101.671163
2184.000000	101.671235
2183.000000	101.671218
2182.000000	101.671190
2181.000000	101.671191
2180.000000	101.671194
2179.000000	101.671188
2178.000000	101.671211
2177.000000	101.671291
2176.000000	101.671400
2175.000000	101.671516
2174.000000	101.671684
2173.000000	101.671956
2172.000000	101.672307
2171.000000	101.672640
2170.000000	101.672880
2169.000000	101.673025
2168.000000	101.673102
2167.000000	101.673104
2166.000000	101.672993
2165.000000	101.672768
2164.000000	101.672545
2163.000000	101.672521
2162.000000	101.672803
2161.000000	101.673281
2160.000000	101.673669
2159.000000	101.673808
2158.000000	101.673850
2157.000000	101.674088
2156.000000	101.674621
2155.000000	101.675305
2154.000000	101.675917
2153.000000	101.676345
2152.000000	101.676583
2151.000000	101.676670
2150.000000	101.676676
2149.000000	101.676715
2148.000000	101.676913
2147.000000	101.677340
2146.000000	101.677982
2145.000000	101.678713
2144.000000	101.679334
2143.000000	101.679721
2142.000000	101.679933
2141.000000	101.680152
2140.000000	101.680482
2139.000000	101.680868
2138.000000	101.681246
2137.000000	101.681644
2136.000000	101.682081
2135.000000	101.682478
2134.000000	101.682765
2133.000000	101.682989
2132.000000	101.683224
2131.000000	101.683445
2130.000000	101.683625
2129.000000	101.683891
2128.000000	101.684403
2127.000000	101.685126
2126.000000	101.685871
2125.000000	101.686536
2124.000000	101.687164
2123.000000	101.687809
2122.000000	101.688511
2121.000000	101.689322
2120.000000	101.690211
2119.000000	101.690960
2118.000000	101.691378
2117.000000	101.691539
2116.000000	101.691766
2115.000000	101.692251
2114.000000	101.692885
2113.000000	101.693493
2112.000000	101.694070
2111.000000	101.694676
2110.000000	101.695218
2109.000000	101.695540
2108.000000	101.695653
2107.000000	101.695767
2106.000000	101.696078
2105.000000	101.696599
2104.000000	101.697229
2103.000000	101.697874
2102.000000	101.698507
2101.000000	101.699182
2100.000000	101.699958
2099.000000	101.700770
2098.000000	101.701401
2097.000000	101.701701
2096.000000	101.701839
2095.000000	101.702195
2094.000000	101.702955
2093.000000	101.703968
2092.000000	101.704998
2091.000000	101.705974
2090.000000	101.706840
2089.000000	101.707373
2088.000000	101.707383
2087.000000	101.707062
2086.000000	101.706927
2085.000000	101.707295
2084.000000	101.707987
2083.000000	101.708595
2082.000000	101.708978
2081.000000	101.709353
2080.000000	101.709902
2079.000000	101.710499
2078.000000	101.710919
2077.000000	101.711125
2076.000000	101.711181
2075.000000	101.711040
2074.000000	101.710689
2073.000000	101.710428
2072.000000	101.710672
2071.000000	101.711437
2070.000000	101.712239
2069.000000	101.712550
2068.000000	101.712174
2067.000000	101.711271
2066.000000	101.710381
2065.000000	101.710377
2064.000000	101.711837
2063.000000	101.714260
2062.000000	101.716294
2061.000000	101.717045
2060.000000	101.716701
2059.000000	101.715744
2058.000000	101.714078
2057.000000	101.711463
2056.000000	101.708389
2055.000000	101.705874
2054.000000	101.704521
2053.000000	101.704288
2052.000000	101.705004
2051.000000	101.706518
2050.000000	101.708286
2049.000000	101.709331
2048.000000	101.708957
2047.000000	101.707398
2046.000000	101.705671
2045.000000	101.704739
2044.000000	101.704670
2043.000000	101.704580
2042.000000	101.703530
2041.000000	101.701543
2040.000000	101.699557
2039.000000	101.698260
2038.000000	101.697282
2037.000000	101.695820
2036.000000	101.693719
2035.000000	101.691584
2034.000000	101.690026
2033.000000	101.689120
2032.000000	101.688488
2031.000000	101.687635
2030.000000	101.686289
2029.000000	101.684673
2028.000000	101.683350
2027.000000	101.682622
2026.000000	101.682187
2025.000000	101.681574
2024.000000	101.680742
2023.000000	101.679949
2022.000000	101.679171
2021.000000	101.678034
2020.000000	101.676355
2019.000000	101.674419
2018.000000	101.672651
2017.000000	101.671156
2016.000000	101.669709
2015.000000	101.668142
2014.000000	101.666605
2013.000000	101.665348
2012.000000	101.664290
2011.000000	101.663008
2010.000000	101.661331
2009.000000	101.659732
2008.000000	101.658766
2007.000000	101.658255
2006.000000	101.657455
2005.000000	101.656060
2004.000000	101.654612
2003.000000	101.653745
2002.000000	101.653511
2001.000000	101.653614
2000.000000	101.653872
1999.000000	101.654067
1998.000000	101.653738
1997.000000	101.652617
1996.000000	101.651141
1995.000000	101.650173
1994.000000	101.650064
1993.000000	101.650359
1992.000000	101.650306
1991.000000	101.649695
1990.000000	101.648929
1989.000000	101.648449
1988.000000	101.648296
1987.000000	101.648208
1986.000000	101.647955
1985.000000	101.647573
1984.000000	101.647254
1983.000000	101.647092
1982.000000	101.646991
1981.000000	101.646834
1980.000000	101.646655
1979.000000	101.646557
1978.000000	101.646524
1977.000000	101.646410
1976.000000	101.646102
1975.000000	101.645628
1974.000000	101.645121
1973.000000	101.644723
1972.000000	101.644516
1971.000000	101.644490
1970.000000	101.644557
1969.000000	101.644608
1968.000000	101.644586
1967.000000	101.644503
1966.000000	101.644396
1965.000000	101.644264
1964.000000	101.644073
1963.000000	101.643773
1962.000000	101.643310
1961.000000	101.642695
1960.000000	101.642136
1959.000000	101.641988
1958.000000	101.642364
1957.000000	101.642837
1956.000000	101.642804
1955.000000	101.642197
1954.000000	101.641675
1953.000000	101.642010
1952.000000	101.643233
1951.000000	101.644292
1950.000000	101.643798
1949.000000	101.641424
1948.000000	101.638558
1947.000000	101.637020
1946.000000	101.637021
1945.000000	101.637046
1944.000000	101.635782
1943.000000	101.633520
1942.000000	101.631410
1941.000000	101.630084
1940.000000	101.629713
1939.000000	101.630553
1938.000000	101.632369
1937.000000	101.633825
1936.000000	101.633559
1935.000000	101.631772
1934.000000	101.629919
1933.000000	101.629106
1932.000000	101.629533
1931.000000	101.631159
1930.000000	101.633752
1929.000000	101.636316
1928.000000	101.637701
1927.000000	101.638031
1926.000000	101.638557
1925.000000	101.639768
1924.000000	101.640461
1923.000000	101.639305
1922.000000	101.636737
1921.000000	101.634300
1920.000000	101.632591
1919.000000	101.630921
1918.000000	101.628492
1917.000000	101.625253
1916.000000	101.621639
1915.000000	101.617991
1914.000000	101.614553
1913.000000	101.611296
1912.000000	101.607526
1911.000000	101.602452
1910.000000	101.596574
1909.000000	101.591862
1908.000000	101.589825
1907.000000	101.589792
1906.000000	101.589587
1905.000000	101.587670
1904.000000	101.584382
1903.000000	101.581304
1902.000000	101.579581
1901.000000	101.578729
1900.000000	101.577061
1899.000000	101.573514
1898.000000	101.568865
1897.000000	101.564821
1896.000000	101.562090
1895.000000	101.559946
1894.000000	101.557697
1893.000000	101.555645
1892.000000	101.554217
1891.000000	101.553154
1890.000000	101.552014
1889.000000	101.550894
1888.000000	101.549986
1887.000000	101.548815
1886.000000	101.546867
1885.000000	101.544569
1884.000000	101.542886
1883.000000	101.542149
1882.000000	101.541870
1881.000000	101.541433
1880.000000	101.540486
1879.000000	101.539156
1878.000000	101.538422
1877.000000	101.539578
1876.000000	101.542426
1875.000000	101.544558
1874.000000	101.543697
1873.000000	101.540578
1872.000000	101.538145
1871.000000	101.537965
1870.000000	101.538636
1869.000000	101.538272
1868.000000	101.537963
1867.000000	101.540232
1866.000000	101.544860
1865.000000	101.549091
1864.000000	101.550913
1863.000000	101.550866
1862.000000	101.551064
1861.000000	101.553063
1860.000000	101.556497
1859.000000	101.559444
1858.000000	101.560337
1857.000000	101.559844
1856.000000	101.560529
1855.000000	101.564233
1854.000000	101.570184
1853.000000	101.575926
1852.000000	101.579893
1851.000000	101.582534
1850.000000	101.585036
1849.000000	101.587865
1848.000000	101.590738
1847.000000	101.593389
1846.000000	101.595884
1845.000000	101.598405
1844.000000	101.600964
1843.000000	101.603443
1842.000000	101.605399
1841.000000	101.606142
1840.000000	101.605714
1839.000000	101.605384
1838.000000	101.606610
1837.000000	101.609373
1836.000000	101.611993
1835.000000	101.612842
1834.000000	101.611878
1833.000000	101.610448
1832.000000	101.610079
1831.000000	101.611376
1830.000000	101.613290
1829.000000	101.613865
1828.000000	101.612154
1827.000000	101.608714
1826.000000	101.605123
1825.000000	101.603313
1824.000000	101.604119
1823.000000	101.606330
1822.000000	101.607861
1821.000000	101.607654
1820.000000	101.606341
1819.000000	101.605377
1818.000000	101.605676
1817.000000	101.607044
1816.000000	101.608581
1815.000000	101.609422
1814.000000	101.609265
1813.000000	101.608464
1812.000000	101.607654
1811.000000	101.607153
1810.000000	101.606898
1809.000000	101.606873
1808.000000	101.607020
1807.000000	101.606831
1806.000000	101.605853
1805.000000	101.604700
1804.000000	101.604753
1803.000000	101.606513
1802.000000	101.608724
1801.000000	101.609639
1800.000000	101.609037
1799.000000	101.608058
1798.000000	101.607379
1797.000000	101.606830
1796.000000	101.606259
1795.000000	101.605822
1794.000000	101.605622
1793.000000	101.605695
1792.000000	101.606395
1791.000000	101.608190
1790.000000	101.610741
1789.000000	101.613116
1788.000000	101.614955
1787.000000	101.616791
1786.000000	101.619351
1785.000000	101.622723
1784.000000	101.626172
1783.000000	101.628675
1782.000000	101.629565
1781.000000	101.629127
1780.000000	101.628868
1779.000000	101.630508
1778.000000	101.634418
1777.000000	101.639430
1776.000000	101.643762
1775.000000	101.646057
1774.000000	101.645970
1773.000000	101.644499
1772.000000	101.643985
1771.000000	101.646224
1770.000000	101.650370
1769.000000	101.654085
1768.000000	101.656059
1767.000000	101.656947
1766.000000	101.658106
1765.000000	101.659853
1764.000000	101.661663
1763.000000	101.663311
1762.000000	101.665072
1761.000000	101.667076
1760.000000	101.669002
1759.000000	101.670569
1758.000000	101.671979
1757.000000	101.673539
1756.000000	101.675071
1755.000000	101.676016
1754.000000	101.675941
1753.000000	101.674929
1752.000000	101.673778
1751.000000	101.673552
1750.000000	101.674432
1749.000000	101.675378
1748.000000	101.675244
1747.000000	101.673756
1746.000000	101.671435
1745.000000	101.669204
1744.000000	101.668115
1743.000000	101.668797
1742.000000	101.670800
1741.000000	101.672703
1740.000000	101.673200
1739.000000	101.672322
1738.000000	101.671176
1737.000000	101.670367
1736.000000	101.669762
1735.000000	101.669252
1734.000000	101.668804
1733.000000	101.668438
1732.000000	101.668044
1731.000000	101.667242
1730.000000	101.665954
1729.000000	101.664580
1728.000000	101.663552
1727.000000	101.662876
1726.000000	101.662223
1725.000000	101.661318
1724.000000	101.660147
1723.000000	101.658846
1722.000000	101.657557
1721.000000	101.656448
1720.000000	101.655769
1719.000000	101.655642
1718.000000	101.655411
1717.000000	101.653957
1716.000000	101.651277
1715.000000	101.648368
1714.000000	101.645951
1713.000000	101.644158
1712.000000	101.642872
1711.000000	101.641915
1710.000000	101.641068
1709.000000	101.640090
1708.000000	101.638865
1707.000000	101.637484
1706.000000	101.636047
1705.000000	101.634548
1704.000000	101.633004
1703.000000	101.631385
1702.000000	101.629626
1701.000000	101.627803
1700.000000	101.625970
1699.000000	101.624125
1698.000000	101.621737
1697.000000	101.618059
1696.000000	101.613459
1695.000000	101.609722
1694.000000	101.607783
1693.000000	101.606808
1692.000000	101.605732
1691.000000	101.604154
1690.000000	101.602175
1689.000000	101.599984
1688.000000	101.597581
1687.000000	101.594716
1686.000000	101.591074
1685.000000	101.586743
1684.000000	101.582796
1683.000000	101.580621
1682.000000	101.579842
1681.000000	101.578890
1680.000000	101.576974
1679.000000	101.574376
1678.000000	101.571629
1677.000000	101.568877
1676.000000	101.566250
1675.000000	101.564349
1674.000000	101.563560
1673.000000	101.563125
1672.000000	101.562033
1671.000000	101.560214
1670.000000	101.558327
1669.000000	101.556625
1668.000000	101.554801
1667.000000	101.552969
1666.000000	101.551704
1665.000000	101.551275
1664.000000	101.551223
1663.000000	101.550551
1662.000000	101.548757
1661.000000	101.546345
1660.000000	101.543875
1659.000000	101.541678
1658.000000	101.540193
1657.000000	101.539553
1656.000000	101.539006
1655.000000	101.537632
1654.000000	101.535042
1653.000000	101.530721
1652.000000	101.526077
1651.000000	101.522386
1650.000000	101.518974
1649.000000	101.516619
1648.000000	101.517579
1647.000000	101.521951
1646.000000	101.525567
1645.000000	101.525654
1644.000000	101.523694
1643.000000	101.521684
1642.000000	101.520234
1641.000000	101.518996
1640.000000	101.517600
1639.000000	101.516094
1638.000000	101.514913
1637.000000	101.514717
1636.000000	101.515347
1635.000000	101.515572
1634.000000	101.515371
1633.000000	101.515509
1632.000000	101.516067
1631.000000	101.516504
1630.000000	101.516124
1629.000000	101.515027
1628.000000	101.514691
1627.000000	101.516759
1626.000000	101.521173
1625.000000	101.526307
1624.000000	101.530581
1623.000000	101.533551
1622.000000	101.535918
1621.000000	101.538140
1620.000000	101.539508
1619.000000	101.539149
1618.000000	101.537245
1617.000000	101.535385
1616.000000	101.535146
1615.000000	101.536257
1614.000000	101.537322
1613.000000	101.538094
1612.000000	101.540074
1611.000000	101.544982
1610.000000	101.552593
1609.000000	101.560351
1608.000000	101.565697
1607.000000	101.568338
1606.000000	101.569756
1605.000000	101.571163
1604.000000	101.572594
1603.000000	101.573838
1602.000000	101.575392
1601.000000	101.578006
1600.000000	101.581657
1599.000000	101.585531
1598.000000	101.588866
1597.000000	101.591571
1596.000000	101.594038
1595.000000	101.596523
1594.000000	101.598841
1593.000000	101.600616
1592.000000	101.601692
1591.000000	101.602334
1590.000000	101.603144
1589.000000	101.604638
1588.000000	101.606743
1587.000000	101.608766
1586.000000	101.610020
1585.000000	101.610487
1584.000000	101.610930
1583.000000	101.612449
1582.000000	101.615873
1581.000000	101.621167
1580.000000	101.627307
1579.000000	101.632751
1578.000000	101.636034
1577.000000	101.636165
1576.000000	101.633728
1575.000000	101.631782
1574.000000	101.632797
1573.000000	101.636359
1572.000000	101.641217
1571.000000	101.646316
1570.000000	101.649946
1569.000000	101.650771
1568.000000	101.650082
1567.000000	101.650069
1566.000000	101.651597
1565.000000	101.654697
1564.000000	101.659060
1563.000000	101.664086
1562.000000	101.668753
1561.000000	101.673031
1560.000000	101.679332
1559.000000	101.686444
1558.000000	101.690195
1557.000000	101.692613
1556.000000	101.693793
1555.000000	101.692272
1554.000000	101.688957
1553.000000	101.685463
1552.000000	101.682498
1551.000000	101.679552
1550.000000	101.676351
1549.000000	101.673152
1548.000000	101.670278
1547.000000	101.667904
1546.000000	101.666429
1545.000000	101.665963
1544.000000	101.665671
1543.000000	101.664780
1542.000000	101.663910
1541.000000	101.663836
1540.000000	101.662938
1539.000000	101.660453
1538.000000	101.658964
1537.000000	101.658998
1536.000000	101.658868
1535.000000	101.657404
1534.000000	101.654369
1533.000000	101.650483
1532.000000	101.647235
1531.000000	101.645153
1530.000000	101.643617
1529.000000	101.642365
1528.000000	101.641422
1527.000000	101.640752
1526.000000	101.640809
1525.000000	101.642501
1524.000000	101.646021
1523.000000	101.650528
1522.000000	101.654495
1521.000000	101.656617
1520.000000	101.657457
1519.000000	101.657990
1518.000000	101.658242
1517.000000	101.658479
1516.000000	101.659362
1515.000000	101.660785
1514.000000	101.661651
1513.000000	101.661397
1512.000000	101.660814
1511.000000	101.660813
1510.000000	101.661338
1509.000000	101.662339
1508.000000	101.665430
1507.000000	101.671302
1506.000000	101.675822
1505.000000	101.676330
1504.000000	101.674811
1503.000000	101.673612
1502.000000	101.673561
1501.000000	101.674182
1500.000000	101.674809
1499.000000	101.675709
1498.000000	101.677411
1497.000000	101.678834
1496.000000	101.678219
1495.000000	101.676171
1494.000000	101.674846
1493.000000	101.675012
1492.000000	101.675793
1491.000000	101.675890
1490.000000	101.674703
1489.000000	101.672878
1488.000000	101.671534
1487.000000	101.671041
1486.000000	101.671061
1485.000000	101.671108
1484.000000	101.670841
1483.000000	101.670298
1482.000000	101.669863
1481.000000	101.669833
1480.000000	101.670102
1479.000000	101.670438
1478.000000	101.670852
1477.000000	101.671357
1476.000000	101.671453
1475.000000	101.670376
1474.000000	101.667990
1473.000000	101.665317
1472.000000	101.663793
1471.000000	101.663634
1470.000000	101.663869
1469.000000	101.663692
1468.000000	101.662983
1467.000000	101.662002
1466.000000	101.661132
1465.000000	101.660674
1464.000000	101.660643
1463.000000	101.660782
1462.000000	101.660819
1461.000000	101.660761
1460.000000	101.660910
1459.000000	101.661653
1458.000000	101.662857
1457.000000	101.663108
1456.000000	101.661381
1455.000000	101.658533
1454.000000	101.655672
1453.000000	101.653282
1452.000000	101.651558
1451.000000	101.650332
1450.000000	101.649311
1449.000000	101.648626
1448.000000	101.648700
1447.000000	101.649173
1446.000000	101.648789
1445.000000	101.646809
1444.000000	101.643883
1443.000000	101.641408
1442.000000	101.640090
1441.000000	101.639557
1440.000000	101.639385
1439.000000	101.639831
1438.000000	101.641309
1437.000000	101.642999
1436.000000	101.642988
1435.000000	101.640925
1434.000000	101.638135
1433.000000	101.635737
1432.000000	101.634323
1431.000000	101.633956
1430.000000	101.634041
1429.000000	101.634037
1428.000000	101.634177
1427.000000	101.634838
1426.000000	101.635610
1425.000000	101.635590
1424.000000	101.634634
1423.000000	101.633867
1422.000000	101.634191
1421.000000	101.635163
1420.000000	101.635685
1419.000000	101.635331
1418.000000	101.634995
1417.000000	101.635557
1416.000000	101.636756
1415.000000	101.638058
1414.000000	101.639322
1413.000000	101.640579
1412.000000	101.641749
1411.000000	101.642659
1410.000000	101.643178
1409.000000	101.643389
1408.000000	101.643769
1407.000000	101.644975
1406.000000	101.647190
1405.000000	101.649633
1404.000000	101.651245
1403.000000	101.652121
1402.000000	101.653570
1401.000000	101.656886
1400.000000	101.662171
1399.000000	101.667541
1398.000000	101.670477
1397.000000	101.670357
1396.000000	101.668770
1395.000000	101.668265
1394.000000	101.670285
1393.000000	101.674128
1392.000000	101.678268
1391.000000	101.682069
1390.000000	101.685752
1389.000000	101.689441
1388.000000	101.692505
1387.000000	101.694023
1386.000000	101.694015
1385.000000	101.693595
1384.000000	101.693855
1383.000000	101.695164
1382.000000	101.697162
1381.000000	101.699096
1380.000000	101.700354
1379.000000	101.700748
1378.000000	101.700462
1377.000000	101.699901
1376.000000	101.699625
1375.000000	101.700211
1374.000000	101.701890
1373.000000	101.704398
1372.000000	101.707362
1371.000000	101.710487
1370.000000	101.713167
1369.000000	101.714351
1368.000000	101.713492
1367.000000	101.711594
1366.000000	101.710490
1365.000000	101.710971
1364.000000	101.712099
1363.000000	101.712386
1362.000000	101.711735
1361.000000	101.711553
1360.000000	101.712615
1359.000000	101.714137
1358.000000	101.715002
1357.000000	101.714989
1356.000000	101.714659
1355.000000	101.714453
1354.000000	101.714286
1353.000000	101.713863
1352.000000	101.713052
1351.000000	101.711955
1350.000000	101.710976
1349.000000	101.710853
1348.000000	101.712279
1347.000000	101.715230
1346.000000	101.718654
1345.000000	101.720991
1344.000000	101.721088
1343.000000	101.718745
1342.000000	101.714647
1341.000000	101.710050
1340.000000	101.706303
1339.000000	101.704201
1338.000000	101.703794
1337.000000	101.704930
1336.000000	101.707516
1335.000000	101.710944
1334.000000	101.713824
1333.000000	101.715068
1332.000000	101.715107
1331.000000	101.715234
1330.000000	101.715680
1329.000000	101.715327
1328.000000	101.713809
1327.000000	101.712813
1326.000000	101.714239
1325.000000	101.717486
1324.000000	101.719679
1323.000000	101.718625
1322.000000	101.714800
1321.000000	101.710713
1320.000000	101.708997
1319.000000	101.710780
1318.000000	101.714762
1317.000000	101.717799
1316.000000	101.717527
1315.000000	101.714655
1314.000000	101.712245
1313.000000	101.712387
1312.000000	101.714132
1311.000000	101.715172
1310.000000	101.714637
1309.000000	101.713432
1308.000000	101.712680
1307.000000	101.712800
1306.000000	101.713770
1305.000000	101.715288
1304.000000	101.716612
1303.000000	101.717027
1302.000000	101.716657
1301.000000	101.716234
1300.000000	101.715818
1299.000000	101.714275
1298.000000	101.710379
1297.000000	101.704297
1296.000000	101.697884
1295.000000	101.693569
1294.000000	101.692684
1293.000000	101.694548
1292.000000	101.697013
1291.000000	101.698197
1290.000000	101.697826
1289.000000	101.696718
1288.000000	101.695060
1287.000000	101.691837
1286.000000	101.686342
1285.000000	101.679788
1284.000000	101.674632
1283.000000	101.672087
1282.000000	101.670859
1281.000000	101.668948
1280.000000	101.666402
1279.000000	101.665221
1278.000000	101.666137
1277.000000	101.666666
1276.000000	101.663783
1275.000000	101.658195
1274.000000	101.654249
1273.000000	101.654888
1272.000000	101.658049
1271.000000	101.659386
1270.000000	101.657694
1269.000000	101.655539
1268.000000	101.654629
1267.000000	101.653024
1266.000000	101.648095
1265.000000	101.640486
1264.000000	101.633290
1263.000000	101.628155
1262.000000	101.624174
1261.000000	101.620296
1260.000000	101.616770
1259.000000	101.613758
1258.000000	101.610450
1257.000000	101.606602
1256.000000	101.603430
1255.000000	101.601508
1254.000000	101.598647
1253.000000	101.591607
1252.000000	101.579826
1251.000000	101.566291
1250.000000	101.554557
1249.000000	101.545800
1248.000000	101.538924
1247.000000	101.532434
1246.000000	101.525460
1245.000000	101.517550
1244.000000	101.508408
1243.000000	101.498296
1242.000000	101.488547
1241.000000	101.480854
1240.000000	101.475153
1239.000000	101.468452
1238.000000	101.457184
1237.000000	101.441070
1236.000000	101.423185
1235.000000	101.405594
1234.000000	101.387027
1233.000000	101.366564
1232.000000	101.347328
1231.000000	101.333009
1230.000000	101.321424
1229.000000	101.305682
1228.000000	101.282702
1227.000000	101.257095
1226.000000	101.234655
1225.000000	101.214347
1224.000000	101.189403
1223.000000	101.154889
1222.000000	101.111578
1221.000000	101.063266
1220.000000	101.012927
1219.000000	100.961794
1218.000000	100.910182
1217.000000	100.858037
1216.000000	100.804961
1215.000000	100.749886
1214.000000	100.691052
1213.000000	100.627427
1212.000000	100.560733
1211.000000	100.495055
1210.000000	100.433497
1209.000000	100.375984
1208.000000	100.320739
1207.000000	100.266361
1206.000000	100.211619
1205.000000	100.154758
1204.000000	100.094507
1203.000000	100.031425
1202.000000	99.967801
1201.000000	99.906616
1200.000000	99.850140
1199.000000	99.798031
1198.000000	99.746837
1197.000000	99.693043
1196.000000	99.636693
1195.000000	99.580444
1194.000000	99.525260
1193.000000	99.469111
1192.000000	99.410125
1191.000000	99.349030
1190.000000	99.287949
1189.000000	99.228172
1188.000000	99.169157
1187.000000	99.108411
1186.000000	99.043043
1185.000000	98.973336
1184.000000	98.904020
1183.000000	98.839641
1182.000000	98.779188
1181.000000	98.717511
1180.000000	98.650977
1179.000000	98.578943
1178.000000	98.501351
1177.000000	98.419100
1176.000000	98.336143
1175.000000	98.256632
1174.000000	98.179552
1173.000000	98.100160
1172.000000	98.016861
1171.000000	97.932410
1170.000000	97.848368
1169.000000	97.763467
1168.000000	97.678533
1167.000000	97.598678
1166.000000	97.529553
1165.000000	97.475488
1164.000000	97.441688
1163.000000	97.433209
1162.000000	97.450097
1161.000000	97.486432
1160.000000	97.533391
1159.000000	97.579436
1158.000000	97.610123
1157.000000	97.614952
1156.000000	97.595006
1155.000000	97.559484
1154.000000	97.514896
1153.000000	97.462013
1152.000000	97.402237
1151.000000	97.339906
1150.000000	97.276988
1149.000000	97.211796
1148.000000	97.144851
1147.000000	97.080368
1146.000000	97.019910
1145.000000	96.959931
1144.000000	96.897730
1143.000000	96.834829
1142.000000	96.772497
1141.000000	96.708709
1140.000000	96.641646
1139.000000	96.572111
1138.000000	96.501091
1137.000000	96.428967
1136.000000	96.357842
1135.000000	96.290101
1134.000000	96.223961
1133.000000	96.154958
1132.000000	96.081985
1131.000000	96.007081
1130.000000	95.929934
1129.000000	95.848644
1128.000000	95.765813
1127.000000	95.687443
1126.000000	95.615302
1125.000000	95.546268
1124.000000	95.478758
1123.000000	95.412923
1122.000000	95.345195
1121.000000	95.270933
1120.000000	95.192913
1119.000000	95.118858
1118.000000	95.049920
1117.000000	94.980254
1116.000000	94.908565
1115.000000	94.840245
1114.000000	94.776131
1113.000000	94.709147
1112.000000	94.635457
1111.000000	94.560004
1110.000000	94.487767
1109.000000	94.417930
1108.000000	94.349538
1107.000000	94.284703
1106.000000	94.223157
1105.000000	94.161253
1104.000000	94.099051
1103.000000	94.041073
1102.000000	93.987767
1101.000000	93.933170
1100.000000	93.872884
1099.000000	93.808071
1098.000000	93.741424
1097.000000	93.676235
1096.000000	93.618373
1095.000000	93.570647
1094.000000	93.525882
1093.000000	93.474572
1092.000000	93.418095
1091.000000	93.364547
1090.000000	93.313832
1089.000000	93.258944
1088.000000	93.200953
1087.000000	93.149375
1086.000000	93.106943
1085.000000	93.066956
1084.000000	93.027066
1083.000000	92.992651
1082.000000	92.964237
1081.000000	92.934253
1080.000000	92.899493
1079.000000	92.865549
1078.000000	92.835978
1077.000000	92.807096
1076.000000	92.775364
1075.000000	92.739785
1074.000000	92.696316
1073.000000	92.640185
1072.000000	92.573398
1071.000000	92.499429
1070.000000	92.412050
1069.000000	92.302043
1068.000000	92.173744
1067.000000	92.041463
1066.000000	91.909734
1065.000000	91.771807
1064.000000	91.628266
1063.000000	91.490759
1062.000000	91.364954
1061.000000	91.245815
1060.000000	91.132548
1059.000000	91.031620
1058.000000	90.941332
1057.000000	90.850113
1056.000000	90.754744
1055.000000	90.664001
1054.000000	90.578792
1053.000000	90.484965
1052.000000	90.373477
1051.000000	90.252385
1050.000000	90.130241
1049.000000	90.003118
1048.000000	89.867249
1047.000000	89.728170
1046.000000	89.588521
1045.000000	89.441523
1044.000000	89.283509
1043.000000	89.120310
1042.000000	88.956451
1041.000000	88.790602
1040.000000	88.625892
1039.000000	88.471040
1038.000000	88.326437
1037.000000	88.183255
1036.000000	88.041656
1035.000000	87.915589
1034.000000	87.813559
1033.000000	87.727785
1032.000000	87.647082
1031.000000	87.567708
1030.000000	87.487838
1029.000000	87.405484
1028.000000	87.326467
1027.000000	87.260979
1026.000000	87.208149
1025.000000	87.156716
1024.000000	87.102891
1023.000000	87.052836
1022.000000	87.005972
1021.000000	86.952881
1020.000000	86.893171
1019.000000	86.838618
1018.000000	86.794055
1017.000000	86.750878
1016.000000	86.703468
1015.000000	86.656338
1014.000000	86.611153
1013.000000	86.563037
1012.000000	86.514286
1011.000000	86.475719
1010.000000	86.449169
1009.000000	86.423275
1008.000000	86.391088
1007.000000	86.357798
1006.000000	86.327585
1005.000000	86.297728
1004.000000	86.268964
1003.000000	86.246671
1002.000000	86.228653
1001.000000	86.206938
1000.000000	86.184571
999.000000	86.174893
998.000000	86.181029
997.000000	86.191666
996.000000	86.199960
995.000000	86.210739
994.000000	86.225963
993.000000	86.239569
992.000000	86.250543
991.000000	86.265325
990.000000	86.283956
989.000000	86.299885
988.000000	86.316541
987.000000	86.347323
986.000000	86.395417
985.000000	86.449943
984.000000	86.505948
983.000000	86.572136
982.000000	86.654733
981.000000	86.749700
980.000000	86.854482
979.000000	86.971221
978.000000	87.094867
977.000000	87.214913
976.000000	87.333286
975.000000	87.464148
974.000000	87.611573
973.000000	87.763370
972.000000	87.911088
971.000000	88.059942
970.000000	88.214314
969.000000	88.370505
968.000000	88.529771
967.000000	88.701809
966.000000	88.887388
965.000000	89.071913
964.000000	89.243842
963.000000	89.406603
962.000000	89.566061
961.000000	89.719997
960.000000	89.867429
959.000000	90.015033
958.000000	90.165138
957.000000	90.308450
956.000000	90.437913
955.000000	90.560480
954.000000	90.686466
953.000000	90.814814
952.000000	90.937153
951.000000	91.050318
950.000000	91.157710
949.000000	91.262828
948.000000	91.366387
947.000000	91.465794
946.000000	91.554700
945.000000	91.627852
944.000000	91.688407
943.000000	91.745989
942.000000	91.807197
941.000000	91.873173
940.000000	91.944609
939.000000	92.020354
938.000000	92.091920
937.000000	92.149806
936.000000	92.196787
935.000000	92.246372
934.000000	92.307061
933.000000	92.376408
932.000000	92.450053
931.000000	92.525981
930.000000	92.599578
929.000000	92.666016
928.000000	92.729529
927.000000	92.799905
926.000000	92.877669
925.000000	92.952559
924.000000	93.018261
923.000000	93.078718
922.000000	93.138781
921.000000	93.199312
920.000000	93.262668
919.000000	93.331298
918.000000	93.398481
917.000000	93.452352
916.000000	93.493010
915.000000	93.535337
914.000000	93.591508
913.000000	93.660680
912.000000	93.737902
911.000000	93.821719
910.000000	93.909829
909.000000	93.999182
908.000000	94.094787
907.000000	94.207447
906.000000	94.338597
905.000000	94.477947
904.000000	94.619989
903.000000	94.771562
902.000000	94.937752
901.000000	95.110858
900.000000	95.279241
899.000000	95.438738
898.000000	95.590730
897.000000	95.737372
896.000000	95.883260
895.000000	96.033671
894.000000	96.186364
893.000000	96.332075
892.000000	96.466493
891.000000	96.594413
890.000000	96.719490
889.000000	96.838649
888.000000	96.950863
887.000000	97.062943
886.000000	97.180704
885.000000	97.300753
884.000000	97.416317
883.000000	97.525685
882.000000	97.630751
881.000000	97.732792
880.000000	97.833648
879.000000	97.935610
878.000000	98.036639
877.000000	98.131385
876.000000	98.219933
875.000000	98.309628
874.000000	98.405620
873.000000	98.505957
872.000000	98.607981
871.000000	98.711797
870.000000	98.814712
869.000000	98.910409
868.000000	98.997978
867.000000	99.085260
866.000000	99.178934
865.000000	99.276882
864.000000	99.374080
863.000000	99.470022
862.000000	99.565513
861.000000	99.657019
860.000000	99.739751
859.000000	99.813818
858.000000	99.883301
857.000000	99.950926
856.000000	100.016539
855.000000	100.079121
854.000000	100.137909
853.000000	100.192717
852.000000	100.244239
851.000000	100.292650
850.000000	100.336073
849.000000	100.372731
848.000000	100.403678
847.000000	100.429827
846.000000	100.447429
845.000000	100.452063
844.000000	100.447390
843.000000	100.443681
842.000000	100.445261
841.000000	100.444164
840.000000	100.428349
839.000000	100.392066
838.000000	100.337320
837.000000	100.270656
836.000000	100.201217
835.000000	100.137658
834.000000	100.083759
833.000000	100.039593
832.000000	100.007079
831.000000	99.988637
830.000000	99.979300
829.000000	99.968233
828.000000	99.952882
827.000000	99.945958
826.000000	99.962846
825.000000	100.005011
824.000000	100.058259
823.000000	100.102523
822.000000	100.122276
821.000000	100.114913
820.000000	100.092353
819.000000	100.069451
818.000000	100.048320
817.000000	100.017764
816.000000	99.968071
815.000000	99.899277
814.000000	99.812037
813.000000	99.697098
812.000000	99.539596
811.000000	99.330689
810.000000	99.071146
809.000000	98.766581
808.000000	98.422501
807.000000	98.040814
806.000000	97.619012
805.000000	97.158871
804.000000	96.680169
803.000000	96.219387
802.000000	95.809037
801.000000	95.463525
800.000000	95.187878
799.000000	94.988921
798.000000	94.870109
797.000000	94.823888
796.000000	94.836390
795.000000	94.894211
794.000000	94.984086
793.000000	95.093779
792.000000	95.215398
791.000000	95.340001
790.000000	95.448631
789.000000	95.518708
788.000000	95.541094
787.000000	95.521437
786.000000	95.462981
785.000000	95.359159
784.000000	95.208517
783.000000	95.028281
782.000000	94.846751
781.000000	94.688171
780.000000	94.568872
779.000000	94.499556
778.000000	94.484627
777.000000	94.524012
776.000000	94.617665
775.000000	94.761905
774.000000	94.941815
773.000000	95.136568
772.000000	95.332903
771.000000	95.525059
770.000000	95.703584
769.000000	95.856197
768.000000	95.980338
767.000000	96.083378
766.000000	96.168702
765.000000	96.232851
764.000000	96.279223
763.000000	96.323063
762.000000	96.377478
761.000000	96.443280
760.000000	96.516402
759.000000	96.595235
758.000000	96.675822
757.000000	96.750143
756.000000	96.816600
755.000000	96.885273
754.000000	96.966407
753.000000	97.058645
752.000000	97.152450
751.000000	97.239162
750.000000	97.313498
749.000000	97.374155
748.000000	97.427201
747.000000	97.484770
746.000000	97.556535
745.000000	97.644779
744.000000	97.747235
743.000000	97.858700
742.000000	97.970513
741.000000	98.076953
740.000000	98.183105
739.000000	98.297953
738.000000	98.418539
737.000000	98.530470
736.000000	98.626271
735.000000	98.712783
734.000000	98.797157
733.000000	98.875769
732.000000	98.942122
731.000000	98.996712
730.000000	99.042379
729.000000	99.077319
728.000000	99.100941
727.000000	99.121772
726.000000	99.151404
725.000000	99.192766
724.000000	99.239922
723.000000	99.287354
722.000000	99.335331
721.000000	99.388491
720.000000	99.452338
719.000000	99.528154
718.000000	99.608412
717.000000	99.680272
716.000000	99.736498
715.000000	99.781097
714.000000	99.822671
713.000000	99.864652
712.000000	99.903537
711.000000	99.933617
710.000000	99.951796
709.000000	99.960207
708.000000	99.965018
707.000000	99.969944
706.000000	99.970591
705.000000	99.958218
704.000000	99.927101
703.000000	99.872159
702.000000	99.780928
701.000000	99.636751
700.000000	99.433053
699.000000	99.181089
698.000000	98.906007
697.000000	98.643894
696.000000	98.440510
695.000000	98.335836
694.000000	98.339736
693.000000	98.426635
692.000000	98.557101
691.000000	98.702238
690.000000	98.848808
689.000000	98.991644
688.000000	99.127576
687.000000	99.250938
686.000000	99.351902
685.000000	99.425225
684.000000	99.480797
683.000000	99.535991
682.000000	99.594968
681.000000	99.645804
680.000000	99.682904
679.000000	99.721118
678.000000	99.777964
677.000000	99.849958
676.000000	99.918044
675.000000	99.971573
674.000000	100.016129
673.000000	100.059533
672.000000	100.100400
671.000000	100.134197
670.000000	100.164632
669.000000	100.207661
668.000000	100.273542
667.000000	100.346836
666.000000	100.405106
665.000000	100.441805
664.000000	100.469180
663.000000	100.505583
662.000000	100.553668
661.000000	100.598487
660.000000	100.628850
659.000000	100.649864
658.000000	100.667692
657.000000	100.675129
656.000000	100.663563
655.000000	100.640531
654.000000	100.622687
653.000000	100.614825
652.000000	100.607174
651.000000	100.591858
650.000000	100.573903
649.000000	100.568182
648.000000	100.590495
647.000000	100.646169
646.000000	100.720209
645.000000	100.784573
644.000000	100.821498
643.000000	100.836197
642.000000	100.847231
641.000000	100.870462
640.000000	100.912819
639.000000	100.970404
638.000000	101.028130
637.000000	101.073150
636.000000	101.111706
635.000000	101.160154
634.000000	101.216036
633.000000	101.253870
632.000000	101.256023
631.000000	101.234916
630.000000	101.220503
629.000000	101.235353
628.000000	101.287166
627.000000	101.370712
626.000000	101.465209
625.000000	101.543704
624.000000	101.595638
623.000000	101.631517
622.000000	101.662916
621.000000	101.691494
620.000000	101.720918
619.000000	101.758480
618.000000	101.795473
617.000000	101.807503
616.000000	101.785152
615.000000	101.745705
614.000000	101.705892
613.000000	101.664604
612.000000	101.625317
611.000000	101.607904
610.000000	101.616632
609.000000	101.622331
608.000000	101.602226
607.000000	101.574872
606.000000	101.570822
605.000000	101.589303
604.000000	101.613397
603.000000	101.646488
602.000000	101.697988
601.000000	101.745532
600.000000	101.746171
599.000000	101.686901
598.000000	101.601720
597.000000	101.534942
596.000000	101.505844
595.000000	101.509754
594.000000	101.527456
593.000000	101.531565
592.000000	101.504981
591.000000	101.461350
590.000000	101.435788
589.000000	101.452525
588.000000	101.512493
587.000000	101.600326
586.000000	101.686100
585.000000	101.732866
584.000000	101.723835
583.000000	101.684049
582.000000	101.663589
581.000000	101.689870
580.000000	101.745880
579.000000	101.795587
578.000000	101.817385
577.000000	101.812346
576.000000	101.791406
575.000000	101.761363
574.000000	101.722334
573.000000	101.679002
572.000000	101.652920
571.000000	101.670841
570.000000	101.728065
569.000000	101.781265
568.000000	101.794852
567.000000	101.775613
566.000000	101.750313
565.000000	101.726991
564.000000	101.698051
563.000000	101.666367
562.000000	101.645101
561.000000	101.638461
560.000000	101.637093
559.000000	101.622377
558.000000	101.573637
557.000000	101.493174
556.000000	101.426873
555.000000	101.430722
554.000000	101.507056
553.000000	101.598097
552.000000	101.649509
551.000000	101.656085
550.000000	101.633784
