PE IR       SUBTECH     SPECTRUM    ASCII       PEDS        4.00        
   -1
BH1 8-1 2 65_1.asc
24/05/17
13:57:47.00
24/05/17
13:58:17.00
Administrator
?品 151 用? Administrator 日期 Friday, May 17 2024
550.000000
#HDR
-1
-1
#GR
cm-1
%T
1.0
0.0
4000.000000
-1.000000
3451
8
101.036130
78.184537
#DATA
4000.000000	100.820894
3999.000000	100.820805
3998.000000	100.820617
3997.000000	100.820424
3996.000000	100.820308
3995.000000	100.820236
3994.000000	100.820079
3993.000000	100.819752
3992.000000	100.819281
3991.000000	100.818812
3990.000000	100.818491
3989.000000	100.818354
3988.000000	100.818329
3987.000000	100.818281
3986.000000	100.818110
3985.000000	100.817800
3984.000000	100.817416
3983.000000	100.817070
3982.000000	100.816889
3981.000000	100.816958
3980.000000	100.817241
3979.000000	100.817524
3978.000000	100.817533
3977.000000	100.817121
3976.000000	100.816354
3975.000000	100.815465
3974.000000	100.814689
3973.000000	100.814192
3972.000000	100.814070
3971.000000	100.814332
3970.000000	100.814828
3969.000000	100.815233
3968.000000	100.815240
3967.000000	100.814791
3966.000000	100.814151
3965.000000	100.813712
3964.000000	100.813686
3963.000000	100.814007
3962.000000	100.814477
3961.000000	100.814970
3960.000000	100.815484
3959.000000	100.816044
3958.000000	100.816531
3957.000000	100.816645
3956.000000	100.816085
3955.000000	100.814819
3954.000000	100.813210
3953.000000	100.811883
3952.000000	100.811356
3951.000000	100.811725
3950.000000	100.812642
3949.000000	100.813613
3948.000000	100.814396
3947.000000	100.815029
3946.000000	100.815544
3945.000000	100.815844
3944.000000	100.815845
3943.000000	100.815629
3942.000000	100.815303
3941.000000	100.814821
3940.000000	100.814172
3939.000000	100.813638
3938.000000	100.813634
3937.000000	100.814261
3936.000000	100.815111
3935.000000	100.815576
3934.000000	100.815357
3933.000000	100.814604
3932.000000	100.813629
3931.000000	100.812548
3930.000000	100.811360
3929.000000	100.810224
3928.000000	100.809491
3927.000000	100.809437
3926.000000	100.809987
3925.000000	100.810670
3924.000000	100.810946
3923.000000	100.810716
3922.000000	100.810331
3921.000000	100.810149
3920.000000	100.810194
3919.000000	100.810296
3918.000000	100.810394
3917.000000	100.810516
3916.000000	100.810629
3915.000000	100.810640
3914.000000	100.810512
3913.000000	100.810307
3912.000000	100.810115
3911.000000	100.809985
3910.000000	100.809906
3909.000000	100.809835
3908.000000	100.809742
3907.000000	100.809620
3906.000000	100.809475
3905.000000	100.809311
3904.000000	100.809128
3903.000000	100.808927
3902.000000	100.808711
3901.000000	100.808488
3900.000000	100.808267
3899.000000	100.808053
3898.000000	100.807849
3897.000000	100.807652
3896.000000	100.807460
3895.000000	100.807268
3894.000000	100.807078
3893.000000	100.806896
3892.000000	100.806738
3891.000000	100.806615
3890.000000	100.806537
3889.000000	100.806502
3888.000000	100.806499
3887.000000	100.806508
3886.000000	100.806502
3885.000000	100.806450
3884.000000	100.806330
3883.000000	100.806155
3882.000000	100.805982
3881.000000	100.805869
3880.000000	100.805821
3879.000000	100.805750
3878.000000	100.805550
3877.000000	100.805197
3876.000000	100.804807
3875.000000	100.804576
3874.000000	100.804609
3873.000000	100.804743
3872.000000	100.804705
3871.000000	100.804537
3870.000000	100.804598
3869.000000	100.805028
3868.000000	100.805474
3867.000000	100.805602
3866.000000	100.805425
3865.000000	100.805049
3864.000000	100.804514
3863.000000	100.803900
3862.000000	100.803403
3861.000000	100.803238
3860.000000	100.803443
3859.000000	100.803974
3858.000000	100.804814
3857.000000	100.805924
3856.000000	100.807172
3855.000000	100.808436
3854.000000	100.809816
3853.000000	100.811435
3852.000000	100.812583
3851.000000	100.812682
3850.000000	100.812376
3849.000000	100.812073
3848.000000	100.811590
3847.000000	100.811052
3846.000000	100.810791
3845.000000	100.810971
3844.000000	100.811561
3843.000000	100.812434
3842.000000	100.813240
3841.000000	100.813583
3840.000000	100.813413
3839.000000	100.813071
3838.000000	100.812967
3837.000000	100.813226
3836.000000	100.813717
3835.000000	100.814306
3834.000000	100.814867
3833.000000	100.815270
3832.000000	100.815466
3831.000000	100.815528
3830.000000	100.815578
3829.000000	100.815721
3828.000000	100.815982
3827.000000	100.816334
3826.000000	100.816699
3825.000000	100.816956
3824.000000	100.817038
3823.000000	100.817012
3822.000000	100.817037
3821.000000	100.817215
3820.000000	100.817415
3819.000000	100.817445
3818.000000	100.817348
3817.000000	100.817290
3816.000000	100.817365
3815.000000	100.817507
3814.000000	100.817542
3813.000000	100.817432
3812.000000	100.817259
3811.000000	100.816992
3810.000000	100.816572
3809.000000	100.816158
3808.000000	100.816100
3807.000000	100.816562
3806.000000	100.817194
3805.000000	100.817399
3804.000000	100.817003
3803.000000	100.816435
3802.000000	100.816434
3801.000000	100.817364
3800.000000	100.818705
3799.000000	100.819826
3798.000000	100.820760
3797.000000	100.821476
3796.000000	100.821581
3795.000000	100.820790
3794.000000	100.819305
3793.000000	100.817691
3792.000000	100.816328
3791.000000	100.815276
3790.000000	100.814712
3789.000000	100.815068
3788.000000	100.816644
3787.000000	100.819164
3786.000000	100.821732
3785.000000	100.823350
3784.000000	100.823538
3783.000000	100.822590
3782.000000	100.821348
3781.000000	100.820481
3780.000000	100.819774
3779.000000	100.818357
3778.000000	100.815666
3777.000000	100.812328
3776.000000	100.809898
3775.000000	100.809406
3774.000000	100.810547
3773.000000	100.812405
3772.000000	100.814580
3771.000000	100.817159
3770.000000	100.819549
3769.000000	100.820332
3768.000000	100.818984
3767.000000	100.817192
3766.000000	100.817293
3765.000000	100.819572
3764.000000	100.821807
3763.000000	100.821694
3762.000000	100.819199
3761.000000	100.816496
3760.000000	100.816072
3759.000000	100.818722
3758.000000	100.822790
3757.000000	100.825660
3756.000000	100.825780
3755.000000	100.823412
3754.000000	100.819925
3753.000000	100.816202
3752.000000	100.811772
3751.000000	100.806215
3750.000000	100.800697
3749.000000	100.796431
3748.000000	100.793116
3747.000000	100.789845
3746.000000	100.786930
3745.000000	100.786049
3744.000000	100.787479
3743.000000	100.788745
3742.000000	100.789403
3741.000000	100.791858
3740.000000	100.795999
3739.000000	100.799387
3738.000000	100.800801
3737.000000	100.801246
3736.000000	100.802009
3735.000000	100.802180
3734.000000	100.799421
3733.000000	100.793260
3732.000000	100.785809
3731.000000	100.779311
3730.000000	100.774969
3729.000000	100.773534
3728.000000	100.775244
3727.000000	100.778780
3726.000000	100.780990
3725.000000	100.778974
3724.000000	100.772829
3723.000000	100.765696
3722.000000	100.760862
3721.000000	100.759074
3720.000000	100.758428
3719.000000	100.756456
3718.000000	100.752324
3717.000000	100.747234
3716.000000	100.743069
3715.000000	100.741041
3714.000000	100.740940
3713.000000	100.741091
3712.000000	100.739514
3711.000000	100.734972
3710.000000	100.726821
3709.000000	100.715620
3708.000000	100.704068
3707.000000	100.695587
3706.000000	100.691845
3705.000000	100.691677
3704.000000	100.691703
3703.000000	100.688474
3702.000000	100.681059
3701.000000	100.671342
3700.000000	100.661449
3699.000000	100.652171
3698.000000	100.643679
3697.000000	100.636264
3696.000000	100.630122
3695.000000	100.625180
3694.000000	100.621575
3693.000000	100.619995
3692.000000	100.621431
3691.000000	100.626281
3690.000000	100.632306
3689.000000	100.633694
3688.000000	100.624962
3687.000000	100.606616
3686.000000	100.585099
3685.000000	100.566886
3684.000000	100.554245
3683.000000	100.545685
3682.000000	100.538658
3681.000000	100.532221
3680.000000	100.527260
3679.000000	100.524105
3678.000000	100.521373
3677.000000	100.516881
3676.000000	100.508428
3675.000000	100.494302
3674.000000	100.473518
3673.000000	100.448862
3672.000000	100.425781
3671.000000	100.406129
3670.000000	100.389132
3669.000000	100.373501
3668.000000	100.357935
3667.000000	100.343815
3666.000000	100.332864
3665.000000	100.323888
3664.000000	100.314332
3663.000000	100.302178
3662.000000	100.286620
3661.000000	100.268081
3660.000000	100.247622
3659.000000	100.226283
3658.000000	100.205384
3657.000000	100.187194
3656.000000	100.173969
3655.000000	100.165095
3654.000000	100.157548
3653.000000	100.149234
3652.000000	100.140801
3651.000000	100.136184
3650.000000	100.138580
3649.000000	100.141904
3648.000000	100.133674
3647.000000	100.110660
3646.000000	100.081780
3645.000000	100.056319
3644.000000	100.036614
3643.000000	100.020383
3642.000000	100.005655
3641.000000	99.993028
3640.000000	99.984285
3639.000000	99.979698
3638.000000	99.976643
3637.000000	99.971017
3636.000000	99.960808
3635.000000	99.947894
3634.000000	99.935336
3633.000000	99.922980
3632.000000	99.907294
3631.000000	99.886106
3630.000000	99.863227
3629.000000	99.847431
3628.000000	99.842109
3627.000000	99.841524
3626.000000	99.842343
3625.000000	99.845017
3624.000000	99.848017
3623.000000	99.849504
3622.000000	99.849533
3621.000000	99.850338
3620.000000	99.855352
3619.000000	99.866437
3618.000000	99.881385
3617.000000	99.896080
3616.000000	99.908855
3615.000000	99.920518
3614.000000	99.931562
3613.000000	99.940062
3612.000000	99.942591
3611.000000	99.938623
3610.000000	99.933261
3609.000000	99.933802
3608.000000	99.943069
3607.000000	99.956479
3606.000000	99.967032
3605.000000	99.972588
3604.000000	99.977002
3603.000000	99.986152
3602.000000	100.002911
3601.000000	100.023836
3600.000000	100.040841
3599.000000	100.047753
3598.000000	100.045615
3597.000000	100.040943
3596.000000	100.039644
3595.000000	100.042469
3594.000000	100.045765
3593.000000	100.046132
3592.000000	100.044034
3591.000000	100.042413
3590.000000	100.043113
3589.000000	100.045050
3588.000000	100.045202
3587.000000	100.041450
3586.000000	100.034569
3585.000000	100.028130
3584.000000	100.025671
3583.000000	100.027399
3582.000000	100.030338
3581.000000	100.030854
3580.000000	100.026938
3579.000000	100.019419
3578.000000	100.011612
3577.000000	100.007198
3576.000000	100.007737
3575.000000	100.011828
3574.000000	100.016223
3573.000000	100.017904
3572.000000	100.015605
3571.000000	100.010000
3570.000000	100.002957
3569.000000	99.996603
3568.000000	99.992181
3567.000000	99.989347
3566.000000	99.986905
3565.000000	99.984603
3564.000000	99.983317
3563.000000	99.982650
3562.000000	99.980197
3561.000000	99.973947
3560.000000	99.964348
3559.000000	99.953898
3558.000000	99.945168
3557.000000	99.939294
3556.000000	99.935814
3555.000000	99.933425
3554.000000	99.931168
3553.000000	99.929164
3552.000000	99.928245
3551.000000	99.929036
3550.000000	99.931328
3549.000000	99.933909
3548.000000	99.934870
3547.000000	99.932776
3546.000000	99.927903
3545.000000	99.921818
3544.000000	99.915713
3543.000000	99.909813
3542.000000	99.904397
3541.000000	99.900563
3540.000000	99.899286
3539.000000	99.900106
3538.000000	99.901412
3537.000000	99.902086
3536.000000	99.902522
3535.000000	99.903705
3534.000000	99.905777
3533.000000	99.907826
3532.000000	99.908883
3531.000000	99.908754
3530.000000	99.908078
3529.000000	99.907775
3528.000000	99.908378
3527.000000	99.909708
3526.000000	99.911121
3525.000000	99.912043
3524.000000	99.912241
3523.000000	99.911677
3522.000000	99.910232
3521.000000	99.907732
3520.000000	99.904325
3519.000000	99.900804
3518.000000	99.898445
3517.000000	99.898220
3516.000000	99.899966
3515.000000	99.902261
3514.000000	99.903221
3513.000000	99.901729
3512.000000	99.898101
3511.000000	99.893823
3510.000000	99.890565
3509.000000	99.889152
3508.000000	99.889322
3507.000000	99.890324
3506.000000	99.891736
3505.000000	99.893649
3504.000000	99.896087
3503.000000	99.898344
3502.000000	99.899235
3501.000000	99.898212
3500.000000	99.895997
3499.000000	99.894033
3498.000000	99.893383
3497.000000	99.894100
3496.000000	99.895411
3495.000000	99.896391
3494.000000	99.896547
3493.000000	99.895865
3492.000000	99.894429
3491.000000	99.892139
3490.000000	99.888907
3489.000000	99.885187
3488.000000	99.882084
3487.000000	99.880655
3486.000000	99.881120
3485.000000	99.882809
3484.000000	99.884736
3483.000000	99.886137
3482.000000	99.886534
3481.000000	99.885658
3480.000000	99.883492
3479.000000	99.880296
3478.000000	99.876504
3477.000000	99.872685
3476.000000	99.869565
3475.000000	99.867731
3474.000000	99.867061
3473.000000	99.866610
3472.000000	99.865345
3471.000000	99.862989
3470.000000	99.860021
3469.000000	99.857028
3468.000000	99.854267
3467.000000	99.851820
3466.000000	99.849844
3465.000000	99.848532
3464.000000	99.847970
3463.000000	99.848046
3462.000000	99.848368
3461.000000	99.848265
3460.000000	99.847119
3459.000000	99.844883
3458.000000	99.842218
3457.000000	99.840017
3456.000000	99.838672
3455.000000	99.837752
3454.000000	99.836383
3453.000000	99.834035
3452.000000	99.830991
3451.000000	99.828095
3450.000000	99.826022
3449.000000	99.824812
3448.000000	99.824031
3447.000000	99.823280
3446.000000	99.822512
3445.000000	99.821734
3444.000000	99.820568
3443.000000	99.818419
3442.000000	99.815170
3441.000000	99.811508
3440.000000	99.808409
3439.000000	99.806243
3438.000000	99.804573
3437.000000	99.802715
3436.000000	99.800450
3435.000000	99.798141
3434.000000	99.796255
3433.000000	99.794894
3432.000000	99.793793
3431.000000	99.792611
3430.000000	99.791141
3429.000000	99.789325
3428.000000	99.787288
3427.000000	99.785375
3426.000000	99.783937
3425.000000	99.782928
3424.000000	99.781823
3423.000000	99.780139
3422.000000	99.778068
3421.000000	99.776395
3420.000000	99.775582
3419.000000	99.775051
3418.000000	99.773575
3417.000000	99.770517
3416.000000	99.766684
3415.000000	99.763881
3414.000000	99.763418
3413.000000	99.765118
3412.000000	99.767489
3411.000000	99.768903
3410.000000	99.768652
3409.000000	99.766955
3408.000000	99.764502
3407.000000	99.762172
3406.000000	99.760842
3405.000000	99.760942
3404.000000	99.762021
3403.000000	99.762994
3402.000000	99.763209
3401.000000	99.763160
3400.000000	99.763857
3399.000000	99.765539
3398.000000	99.767286
3397.000000	99.767955
3396.000000	99.767285
3395.000000	99.765909
3394.000000	99.764590
3393.000000	99.763765
3392.000000	99.763741
3391.000000	99.764863
3390.000000	99.767229
3389.000000	99.770430
3388.000000	99.773809
3387.000000	99.776898
3386.000000	99.779554
3385.000000	99.781807
3384.000000	99.783779
3383.000000	99.785642
3382.000000	99.787421
3381.000000	99.788918
3380.000000	99.790046
3379.000000	99.791180
3378.000000	99.792852
3377.000000	99.794974
3376.000000	99.796685
3375.000000	99.797217
3374.000000	99.796797
3373.000000	99.796518
3372.000000	99.797396
3371.000000	99.799707
3370.000000	99.802980
3369.000000	99.806406
3368.000000	99.809279
3367.000000	99.811337
3366.000000	99.812953
3365.000000	99.814849
3364.000000	99.817431
3363.000000	99.820369
3362.000000	99.822891
3361.000000	99.824533
3360.000000	99.825553
3359.000000	99.826660
3358.000000	99.828334
3357.000000	99.830442
3356.000000	99.832495
3355.000000	99.834180
3354.000000	99.835644
3353.000000	99.837304
3352.000000	99.839439
3351.000000	99.841992
3350.000000	99.844673
3349.000000	99.847211
3348.000000	99.849479
3347.000000	99.851420
3346.000000	99.852992
3345.000000	99.854340
3344.000000	99.855933
3343.000000	99.858223
3342.000000	99.861025
3341.000000	99.863417
3340.000000	99.864463
3339.000000	99.864032
3338.000000	99.862981
3337.000000	99.862691
3336.000000	99.864346
3335.000000	99.868292
3334.000000	99.873678
3333.000000	99.878930
3332.000000	99.883140
3331.000000	99.886788
3330.000000	99.890686
3329.000000	99.894441
3328.000000	99.896623
3327.000000	99.896478
3326.000000	99.894869
3325.000000	99.893427
3324.000000	99.893011
3323.000000	99.893304
3322.000000	99.893578
3321.000000	99.893460
3320.000000	99.893211
3319.000000	99.893537
3318.000000	99.894969
3317.000000	99.897243
3316.000000	99.899538
3315.000000	99.901429
3314.000000	99.903351
3313.000000	99.905843
3312.000000	99.908632
3311.000000	99.910873
3310.000000	99.912286
3309.000000	99.913678
3308.000000	99.916163
3307.000000	99.920043
3306.000000	99.924591
3305.000000	99.928800
3304.000000	99.932181
3303.000000	99.934773
3302.000000	99.936614
3301.000000	99.937538
3300.000000	99.937626
3299.000000	99.937600
3298.000000	99.938402
3297.000000	99.940327
3296.000000	99.942783
3295.000000	99.944947
3294.000000	99.946535
3293.000000	99.947938
3292.000000	99.949818
3291.000000	99.952650
3290.000000	99.956405
3289.000000	99.960408
3288.000000	99.963660
3287.000000	99.965560
3286.000000	99.966328
3285.000000	99.966795
3284.000000	99.967751
3283.000000	99.969442
3282.000000	99.971605
3281.000000	99.973757
3280.000000	99.975488
3279.000000	99.976678
3278.000000	99.977545
3277.000000	99.978489
3276.000000	99.979805
3275.000000	99.981511
3274.000000	99.983438
3273.000000	99.985441
3272.000000	99.987488
3271.000000	99.989551
3270.000000	99.991502
3269.000000	99.993193
3268.000000	99.994626
3267.000000	99.995958
3266.000000	99.997372
3265.000000	99.998934
3264.000000	100.000604
3263.000000	100.002321
3262.000000	100.004046
3261.000000	100.005757
3260.000000	100.007440
3259.000000	100.009101
3258.000000	100.010756
3257.000000	100.012424
3256.000000	100.014118
3255.000000	100.015838
3254.000000	100.017576
3253.000000	100.019329
3252.000000	100.021089
3251.000000	100.022845
3250.000000	100.024594
3249.000000	100.026342
3248.000000	100.028096
3247.000000	100.029865
3246.000000	100.031650
3245.000000	100.033450
3244.000000	100.035261
3243.000000	100.037083
3242.000000	100.038922
3241.000000	100.040788
3240.000000	100.042687
3239.000000	100.044619
3238.000000	100.046586
3237.000000	100.048588
3236.000000	100.050625
3235.000000	100.052695
3234.000000	100.054793
3233.000000	100.056910
3232.000000	100.059038
3231.000000	100.061175
3230.000000	100.063324
3229.000000	100.065495
3228.000000	100.067694
3227.000000	100.069923
3226.000000	100.072176
3225.000000	100.074443
3224.000000	100.076710
3223.000000	100.078972
3222.000000	100.081225
3221.000000	100.083472
3220.000000	100.085714
3219.000000	100.087954
3218.000000	100.090203
3217.000000	100.092472
3216.000000	100.094768
3215.000000	100.097092
3214.000000	100.099434
3213.000000	100.101781
3212.000000	100.104121
3211.000000	100.106453
3210.000000	100.108782
3209.000000	100.111121
3208.000000	100.113476
3207.000000	100.115847
3206.000000	100.118225
3205.000000	100.120601
3204.000000	100.122968
3203.000000	100.125326
3202.000000	100.127691
3201.000000	100.130099
3200.000000	100.132562
3199.000000	100.135031
3198.000000	100.137439
3197.000000	100.139775
3196.000000	100.142104
3195.000000	100.144479
3194.000000	100.146873
3193.000000	100.149256
3192.000000	100.151681
3191.000000	100.154211
3190.000000	100.156751
3189.000000	100.159078
3188.000000	100.161088
3187.000000	100.162909
3186.000000	100.164739
3185.000000	100.166629
3184.000000	100.168490
3183.000000	100.170276
3182.000000	100.172086
3181.000000	100.174063
3180.000000	100.176293
3179.000000	100.178838
3178.000000	100.181706
3177.000000	100.184704
3176.000000	100.187429
3175.000000	100.189614
3174.000000	100.191444
3173.000000	100.193426
3172.000000	100.195865
3171.000000	100.198568
3170.000000	100.201099
3169.000000	100.203180
3168.000000	100.204810
3167.000000	100.206154
3166.000000	100.207425
3165.000000	100.208803
3164.000000	100.210347
3163.000000	100.212034
3162.000000	100.213882
3161.000000	100.215953
3160.000000	100.218228
3159.000000	100.220572
3158.000000	100.222829
3157.000000	100.224911
3156.000000	100.226825
3155.000000	100.228738
3154.000000	100.230956
3153.000000	100.233644
3152.000000	100.236545
3151.000000	100.239067
3150.000000	100.240852
3149.000000	100.242090
3148.000000	100.243395
3147.000000	100.245237
3146.000000	100.247607
3145.000000	100.250198
3144.000000	100.252770
3143.000000	100.255320
3142.000000	100.257887
3141.000000	100.260314
3140.000000	100.262329
3139.000000	100.263816
3138.000000	100.264938
3137.000000	100.266007
3136.000000	100.267259
3135.000000	100.268802
3134.000000	100.270685
3133.000000	100.272943
3132.000000	100.275548
3131.000000	100.278367
3130.000000	100.281229
3129.000000	100.283981
3128.000000	100.286505
3127.000000	100.288749
3126.000000	100.290756
3125.000000	100.292684
3124.000000	100.294769
3123.000000	100.297204
3122.000000	100.299966
3121.000000	100.302729
3120.000000	100.305109
3119.000000	100.307090
3118.000000	100.309089
3117.000000	100.311466
3116.000000	100.313999
3115.000000	100.316104
3114.000000	100.317555
3113.000000	100.318759
3112.000000	100.320291
3111.000000	100.322305
3110.000000	100.324581
3109.000000	100.326929
3108.000000	100.329338
3107.000000	100.331742
3106.000000	100.333970
3105.000000	100.335955
3104.000000	100.337811
3103.000000	100.339672
3102.000000	100.341581
3101.000000	100.343568
3100.000000	100.345737
3099.000000	100.348186
3098.000000	100.350829
3097.000000	100.353309
3096.000000	100.355220
3095.000000	100.356487
3094.000000	100.357495
3093.000000	100.358794
3092.000000	100.360580
3091.000000	100.362583
3090.000000	100.364376
3089.000000	100.365764
3088.000000	100.366868
3087.000000	100.367968
3086.000000	100.369294
3085.000000	100.370908
3084.000000	100.372681
3083.000000	100.374367
3082.000000	100.375805
3081.000000	100.377080
3080.000000	100.378451
3079.000000	100.380100
3078.000000	100.381997
3077.000000	100.383953
3076.000000	100.385755
3075.000000	100.387243
3074.000000	100.388315
3073.000000	100.388922
3072.000000	100.389126
3071.000000	100.389255
3070.000000	100.389912
3069.000000	100.391615
3068.000000	100.394292
3067.000000	100.397220
3066.000000	100.399593
3065.000000	100.401056
3064.000000	100.401660
3063.000000	100.401573
3062.000000	100.401062
3061.000000	100.400627
3060.000000	100.400834
3059.000000	100.401969
3058.000000	100.403949
3057.000000	100.406485
3056.000000	100.409235
3055.000000	100.411845
3054.000000	100.413971
3053.000000	100.415343
3052.000000	100.415911
3051.000000	100.416049
3050.000000	100.416532
3049.000000	100.418018
3048.000000	100.420468
3047.000000	100.423262
3046.000000	100.425841
3045.000000	100.427946
3044.000000	100.429281
3043.000000	100.429530
3042.000000	100.428897
3041.000000	100.428075
3040.000000	100.427405
3039.000000	100.426612
3038.000000	100.425654
3037.000000	100.425236
3036.000000	100.425935
3035.000000	100.427238
3034.000000	100.428023
3033.000000	100.427847
3032.000000	100.427302
3031.000000	100.427223
3030.000000	100.427918
3029.000000	100.429151
3028.000000	100.430435
3027.000000	100.431240
3026.000000	100.431277
3025.000000	100.430745
3024.000000	100.430235
3023.000000	100.430287
3022.000000	100.430990
3021.000000	100.432046
3020.000000	100.433036
3019.000000	100.433544
3018.000000	100.433254
3017.000000	100.432231
3016.000000	100.431139
3015.000000	100.430770
3014.000000	100.431208
3013.000000	100.431654
3012.000000	100.431293
3011.000000	100.430230
3010.000000	100.429457
3009.000000	100.429891
3008.000000	100.431477
3007.000000	100.433140
3006.000000	100.433707
3005.000000	100.432963
3004.000000	100.431749
3003.000000	100.431012
3002.000000	100.430920
3001.000000	100.430971
3000.000000	100.430789
2999.000000	100.430658
2998.000000	100.431243
2997.000000	100.432744
2996.000000	100.434247
2995.000000	100.434097
2994.000000	100.431331
2993.000000	100.426813
2992.000000	100.422584
2991.000000	100.419988
2990.000000	100.419012
2989.000000	100.419657
2988.000000	100.423072
2987.000000	100.430312
2986.000000	100.439926
2985.000000	100.447737
2984.000000	100.450018
2983.000000	100.446720
2982.000000	100.441451
2981.000000	100.438394
2980.000000	100.439095
2979.000000	100.442223
2978.000000	100.445536
2977.000000	100.447393
2976.000000	100.446831
2975.000000	100.443463
2974.000000	100.437947
2973.000000	100.431966
2972.000000	100.426900
2971.000000	100.422614
2970.000000	100.418062
2969.000000	100.412904
2968.000000	100.407928
2967.000000	100.403863
2966.000000	100.400268
2965.000000	100.395772
2964.000000	100.389151
2963.000000	100.380336
2962.000000	100.370888
2961.000000	100.363396
2960.000000	100.359632
2959.000000	100.358911
2958.000000	100.358658
2957.000000	100.356948
2956.000000	100.354335
2955.000000	100.353218
2954.000000	100.355803
2953.000000	100.362476
2952.000000	100.371110
2951.000000	100.377644
2950.000000	100.378488
2949.000000	100.373420
2948.000000	100.366162
2947.000000	100.361589
2946.000000	100.361987
2945.000000	100.365873
2944.000000	100.369588
2943.000000	100.369673
2942.000000	100.364636
2941.000000	100.355807
2940.000000	100.346624
2939.000000	100.340085
2938.000000	100.336500
2937.000000	100.333903
2936.000000	100.330486
2935.000000	100.326162
2934.000000	100.321786
2933.000000	100.317659
2932.000000	100.313292
2931.000000	100.308212
2930.000000	100.302343
2929.000000	100.295554
2928.000000	100.287524
2927.000000	100.278804
2926.000000	100.271978
2925.000000	100.270748
2924.000000	100.277086
2923.000000	100.289444
2922.000000	100.304200
2921.000000	100.318634
2920.000000	100.331695
2919.000000	100.342324
2918.000000	100.348999
2917.000000	100.351702
2916.000000	100.352991
2915.000000	100.355959
2914.000000	100.361707
2913.000000	100.369620
2912.000000	100.379165
2911.000000	100.390184
2910.000000	100.401839
2909.000000	100.412600
2908.000000	100.421243
2907.000000	100.426998
2906.000000	100.429182
2905.000000	100.428016
2904.000000	100.425767
2903.000000	100.425600
2902.000000	100.428762
2901.000000	100.433949
2900.000000	100.439597
2899.000000	100.445509
2898.000000	100.451850
2897.000000	100.458133
2896.000000	100.464246
2895.000000	100.471152
2894.000000	100.479144
2893.000000	100.486265
2892.000000	100.490235
2891.000000	100.491588
2890.000000	100.493245
2889.000000	100.496942
2888.000000	100.501551
2887.000000	100.505292
2886.000000	100.508045
2885.000000	100.510497
2884.000000	100.512118
2883.000000	100.511559
2882.000000	100.509046
2881.000000	100.507238
2880.000000	100.508939
2879.000000	100.513948
2878.000000	100.518627
2877.000000	100.518956
2876.000000	100.514321
2875.000000	100.508265
2874.000000	100.505094
2873.000000	100.505578
2872.000000	100.506638
2871.000000	100.505306
2870.000000	100.502162
2869.000000	100.500270
2868.000000	100.501348
2867.000000	100.504142
2866.000000	100.506515
2865.000000	100.507908
2864.000000	100.509016
2863.000000	100.509758
2862.000000	100.508770
2861.000000	100.505138
2860.000000	100.499924
2859.000000	100.495356
2858.000000	100.492561
2857.000000	100.490519
2856.000000	100.487489
2855.000000	100.483614
2854.000000	100.481756
2853.000000	100.485127
2852.000000	100.493840
2851.000000	100.503995
2850.000000	100.510914
2849.000000	100.513746
2848.000000	100.516241
2847.000000	100.522762
2846.000000	100.534146
2845.000000	100.547703
2844.000000	100.560375
2843.000000	100.570820
2842.000000	100.578687
2841.000000	100.583634
2840.000000	100.585961
2839.000000	100.587137
2838.000000	100.588459
2837.000000	100.589672
2836.000000	100.590087
2835.000000	100.590714
2834.000000	100.593830
2833.000000	100.600100
2832.000000	100.607215
2831.000000	100.612038
2830.000000	100.613436
2829.000000	100.612552
2828.000000	100.611210
2827.000000	100.610722
2826.000000	100.611645
2825.000000	100.613759
2824.000000	100.616282
2823.000000	100.618552
2822.000000	100.620438
2821.000000	100.622061
2820.000000	100.623673
2819.000000	100.626134
2818.000000	100.630621
2817.000000	100.636981
2816.000000	100.642880
2815.000000	100.645702
2814.000000	100.645206
2813.000000	100.643542
2812.000000	100.642923
2811.000000	100.643854
2810.000000	100.645643
2809.000000	100.647554
2808.000000	100.649035
2807.000000	100.649636
2806.000000	100.649443
2805.000000	100.649297
2804.000000	100.650076
2803.000000	100.651794
2802.000000	100.653676
2801.000000	100.655133
2800.000000	100.656362
2799.000000	100.657954
2798.000000	100.660122
2797.000000	100.662441
2796.000000	100.664217
2795.000000	100.665094
2794.000000	100.665325
2793.000000	100.665546
2792.000000	100.666234
2791.000000	100.667345
2790.000000	100.668516
2789.000000	100.669508
2788.000000	100.670373
2787.000000	100.671271
2786.000000	100.672259
2785.000000	100.673279
2784.000000	100.674253
2783.000000	100.675159
2782.000000	100.676034
2781.000000	100.676915
2780.000000	100.677808
2779.000000	100.678704
2778.000000	100.679595
2777.000000	100.680479
2776.000000	100.681356
2775.000000	100.682226
2774.000000	100.683090
2773.000000	100.683949
2772.000000	100.684805
2771.000000	100.685655
2770.000000	100.686498
2769.000000	100.687334
2768.000000	100.688169
2767.000000	100.689007
2766.000000	100.689848
2765.000000	100.690694
2764.000000	100.691548
2763.000000	100.692407
2762.000000	100.693254
2761.000000	100.694065
2760.000000	100.694824
2759.000000	100.695557
2758.000000	100.696320
2757.000000	100.697131
2756.000000	100.697921
2755.000000	100.698598
2754.000000	100.699199
2753.000000	100.699873
2752.000000	100.700675
2751.000000	100.701472
2750.000000	100.702130
2749.000000	100.702716
2748.000000	100.703386
2747.000000	100.704172
2746.000000	100.704991
2745.000000	100.705821
2744.000000	100.706691
2743.000000	100.707529
2742.000000	100.708200
2741.000000	100.708716
2740.000000	100.709324
2739.000000	100.710286
2738.000000	100.711605
2737.000000	100.712953
2736.000000	100.713875
2735.000000	100.714118
2734.000000	100.713802
2733.000000	100.713361
2732.000000	100.713242
2731.000000	100.713669
2730.000000	100.714654
2729.000000	100.716075
2728.000000	100.717666
2727.000000	100.719000
2726.000000	100.719654
2725.000000	100.719454
2724.000000	100.718588
2723.000000	100.717588
2722.000000	100.717057
2721.000000	100.717247
2720.000000	100.717860
2719.000000	100.718295
2718.000000	100.718253
2717.000000	100.718033
2716.000000	100.718143
2715.000000	100.718747
2714.000000	100.719606
2713.000000	100.720438
2712.000000	100.721152
2711.000000	100.721792
2710.000000	100.722393
2709.000000	100.722905
2708.000000	100.723205
2707.000000	100.723236
2706.000000	100.723186
2705.000000	100.723427
2704.000000	100.724162
2703.000000	100.725208
2702.000000	100.726160
2701.000000	100.726751
2700.000000	100.726978
2699.000000	100.726985
2698.000000	100.726965
2697.000000	100.727098
2696.000000	100.727425
2695.000000	100.727774
2694.000000	100.727941
2693.000000	100.727957
2692.000000	100.728066
2691.000000	100.728417
2690.000000	100.728863
2689.000000	100.729106
2688.000000	100.729034
2687.000000	100.728799
2686.000000	100.728640
2685.000000	100.728669
2684.000000	100.728847
2683.000000	100.729096
2682.000000	100.729347
2681.000000	100.729556
2680.000000	100.729702
2679.000000	100.729791
2678.000000	100.729856
2677.000000	100.729924
2676.000000	100.729992
2675.000000	100.730043
2674.000000	100.730071
2673.000000	100.730087
2672.000000	100.730097
2671.000000	100.730102
2670.000000	100.730094
2669.000000	100.730070
2668.000000	100.730028
2667.000000	100.729973
2666.000000	100.729906
2665.000000	100.729834
2664.000000	100.729765
2663.000000	100.729710
2662.000000	100.729673
2661.000000	100.729641
2660.000000	100.729596
2659.000000	100.729544
2658.000000	100.729518
2657.000000	100.729542
2656.000000	100.729589
2655.000000	100.729601
2654.000000	100.729553
2653.000000	100.729466
2652.000000	100.729371
2651.000000	100.729293
2650.000000	100.729257
2649.000000	100.729293
2648.000000	100.729376
2647.000000	100.729427
2646.000000	100.729407
2645.000000	100.729368
2644.000000	100.729374
2643.000000	100.729433
2642.000000	100.729557
2641.000000	100.729792
2640.000000	100.730108
2639.000000	100.730301
2638.000000	100.730196
2637.000000	100.729870
2636.000000	100.729606
2635.000000	100.729578
2634.000000	100.729728
2633.000000	100.729931
2632.000000	100.730124
2631.000000	100.730231
2630.000000	100.730089
2629.000000	100.729616
2628.000000	100.729018
2627.000000	100.728688
2626.000000	100.728869
2625.000000	100.729528
2624.000000	100.730499
2623.000000	100.731633
2622.000000	100.732768
2621.000000	100.733660
2620.000000	100.734051
2619.000000	100.733843
2618.000000	100.733255
2617.000000	100.732775
2616.000000	100.732787
2615.000000	100.733247
2614.000000	100.733720
2613.000000	100.733762
2612.000000	100.733252
2611.000000	100.732436
2610.000000	100.731801
2609.000000	100.731821
2608.000000	100.732655
2607.000000	100.733931
2606.000000	100.735015
2605.000000	100.735648
2604.000000	100.736091
2603.000000	100.736586
2602.000000	100.736922
2601.000000	100.736761
2600.000000	100.736179
2599.000000	100.735619
2598.000000	100.735402
2597.000000	100.735592
2596.000000	100.736285
2595.000000	100.737637
2594.000000	100.739467
2593.000000	100.741083
2592.000000	100.741815
2591.000000	100.741651
2590.000000	100.741216
2589.000000	100.741072
2588.000000	100.741131
2587.000000	100.740884
2586.000000	100.740098
2585.000000	100.739171
2584.000000	100.738752
2583.000000	100.739081
2582.000000	100.739801
2581.000000	100.740349
2580.000000	100.740419
2579.000000	100.740034
2578.000000	100.739350
2577.000000	100.738563
2576.000000	100.737894
2575.000000	100.737479
2574.000000	100.737276
2573.000000	100.737179
2572.000000	100.737188
2571.000000	100.737390
2570.000000	100.737758
2569.000000	100.738082
2568.000000	100.738157
2567.000000	100.738023
2566.000000	100.737989
2565.000000	100.738372
2564.000000	100.739169
2563.000000	100.739986
2562.000000	100.740343
2561.000000	100.740126
2560.000000	100.739608
2559.000000	100.739176
2558.000000	100.739020
2557.000000	100.739090
2556.000000	100.739263
2555.000000	100.739434
2554.000000	100.739575
2553.000000	100.739763
2552.000000	100.740097
2551.000000	100.740552
2550.000000	100.740977
2549.000000	100.741254
2548.000000	100.741409
2547.000000	100.741534
2546.000000	100.741699
2545.000000	100.741919
2544.000000	100.742183
2543.000000	100.742482
2542.000000	100.742807
2541.000000	100.743137
2540.000000	100.743450
2539.000000	100.743741
2538.000000	100.744023
2537.000000	100.744312
2536.000000	100.744615
2535.000000	100.744936
2534.000000	100.745275
2533.000000	100.745630
2532.000000	100.745996
2531.000000	100.746368
2530.000000	100.746743
2529.000000	100.747116
2528.000000	100.747491
2527.000000	100.747872
2526.000000	100.748265
2525.000000	100.748670
2524.000000	100.749080
2523.000000	100.749487
2522.000000	100.749886
2521.000000	100.750280
2520.000000	100.750677
2519.000000	100.751081
2518.000000	100.751490
2517.000000	100.751896
2516.000000	100.752293
2515.000000	100.752677
2514.000000	100.753052
2513.000000	100.753427
2512.000000	100.753806
2511.000000	100.754191
2510.000000	100.754577
2509.000000	100.754961
2508.000000	100.755343
2507.000000	100.755729
2506.000000	100.756125
2505.000000	100.756532
2504.000000	100.756946
2503.000000	100.757364
2502.000000	100.757778
2501.000000	100.758186
2500.000000	100.758587
2499.000000	100.758985
2498.000000	100.759390
2497.000000	100.759808
2496.000000	100.760246
2495.000000	100.760716
2494.000000	100.761208
2493.000000	100.761701
2492.000000	100.762173
2491.000000	100.762611
2490.000000	100.763020
2489.000000	100.763418
2488.000000	100.763826
2487.000000	100.764261
2486.000000	100.764746
2485.000000	100.765269
2484.000000	100.765750
2483.000000	100.766093
2482.000000	100.766298
2481.000000	100.766480
2480.000000	100.766757
2479.000000	100.767137
2478.000000	100.767579
2477.000000	100.768073
2476.000000	100.768605
2475.000000	100.769124
2474.000000	100.769651
2473.000000	100.770335
2472.000000	100.771292
2471.000000	100.772409
2470.000000	100.773404
2469.000000	100.774096
2468.000000	100.774553
2467.000000	100.774985
2466.000000	100.775545
2465.000000	100.776203
2464.000000	100.776777
2463.000000	100.777076
2462.000000	100.777102
2461.000000	100.777147
2460.000000	100.777568
2459.000000	100.778452
2458.000000	100.779554
2457.000000	100.780551
2456.000000	100.781349
2455.000000	100.782052
2454.000000	100.782720
2453.000000	100.783256
2452.000000	100.783521
2451.000000	100.783546
2450.000000	100.783620
2449.000000	100.784113
2448.000000	100.785150
2447.000000	100.786475
2446.000000	100.787644
2445.000000	100.788428
2444.000000	100.788925
2443.000000	100.789338
2442.000000	100.789756
2441.000000	100.790194
2440.000000	100.790714
2439.000000	100.791397
2438.000000	100.792270
2437.000000	100.793290
2436.000000	100.794343
2435.000000	100.795186
2434.000000	100.795543
2433.000000	100.795389
2432.000000	100.795038
2431.000000	100.794859
2430.000000	100.794951
2429.000000	100.795212
2428.000000	100.795619
2427.000000	100.796240
2426.000000	100.796979
2425.000000	100.797490
2424.000000	100.797476
2423.000000	100.796978
2422.000000	100.796373
2421.000000	100.796067
2420.000000	100.796192
2419.000000	100.796573
2418.000000	100.796949
2417.000000	100.797219
2416.000000	100.797506
2415.000000	100.798060
2414.000000	100.799077
2413.000000	100.800494
2412.000000	100.801870
2411.000000	100.802577
2410.000000	100.802242
2409.000000	100.801067
2408.000000	100.799778
2407.000000	100.799108
2406.000000	100.799345
2405.000000	100.800295
2404.000000	100.801534
2403.000000	100.802660
2402.000000	100.803422
2401.000000	100.803726
2400.000000	100.803616
2399.000000	100.803267
2398.000000	100.802964
2397.000000	100.803011
2396.000000	100.803550
2395.000000	100.804518
2394.000000	100.805786
2393.000000	100.807279
2392.000000	100.808890
2391.000000	100.810351
2390.000000	100.811341
2389.000000	100.811773
2388.000000	100.811856
2387.000000	100.811830
2386.000000	100.811717
2385.000000	100.811374
2384.000000	100.810756
2383.000000	100.810073
2382.000000	100.809722
2381.000000	100.810007
2380.000000	100.810961
2379.000000	100.812440
2378.000000	100.814314
2377.000000	100.816455
2376.000000	100.818514
2375.000000	100.819947
2374.000000	100.820490
2373.000000	100.820407
2372.000000	100.820219
2371.000000	100.820220
2370.000000	100.820410
2369.000000	100.820807
2368.000000	100.821464
2367.000000	100.822202
2366.000000	100.822721
2365.000000	100.823061
2364.000000	100.823591
2363.000000	100.824388
2362.000000	100.825020
2361.000000	100.825106
2360.000000	100.824801
2359.000000	100.824693
2358.000000	100.825159
2357.000000	100.826111
2356.000000	100.827122
2355.000000	100.827718
2354.000000	100.827753
2353.000000	100.827427
2352.000000	100.827112
2351.000000	100.826942
2350.000000	100.826743
2349.000000	100.826394
2348.000000	100.825985
2347.000000	100.825742
2346.000000	100.825715
2345.000000	100.825731
2344.000000	100.825635
2343.000000	100.825417
2342.000000	100.825176
2341.000000	100.824878
2340.000000	100.824424
2339.000000	100.823785
2338.000000	100.823104
2337.000000	100.822634
2336.000000	100.822573
2335.000000	100.822874
2334.000000	100.823158
2333.000000	100.822973
2332.000000	100.822212
2331.000000	100.821142
2330.000000	100.820067
2329.000000	100.819102
2328.000000	100.818157
2327.000000	100.817189
2326.000000	100.816155
2325.000000	100.815075
2324.000000	100.814067
2323.000000	100.813234
2322.000000	100.812545
2321.000000	100.811762
2320.000000	100.810690
2319.000000	100.809348
2318.000000	100.808002
2317.000000	100.806952
2316.000000	100.806301
2315.000000	100.805924
2314.000000	100.805515
2313.000000	100.804848
2312.000000	100.803890
2311.000000	100.802772
2310.000000	100.801651
2309.000000	100.800598
2308.000000	100.799583
2307.000000	100.798571
2306.000000	100.797594
2305.000000	100.796723
2304.000000	100.795983
2303.000000	100.795299
2302.000000	100.794559
2301.000000	100.793723
2300.000000	100.792835
2299.000000	100.791963
2298.000000	100.791131
2297.000000	100.790319
2296.000000	100.789500
2295.000000	100.788663
2294.000000	100.787815
2293.000000	100.786986
2292.000000	100.786203
2291.000000	100.785462
2290.000000	100.784745
2289.000000	100.784042
2288.000000	100.783352
2287.000000	100.782673
2286.000000	100.782003
2285.000000	100.781345
2284.000000	100.780706
2283.000000	100.780084
2282.000000	100.779480
2281.000000	100.778893
2280.000000	100.778323
2279.000000	100.777770
2278.000000	100.777234
2277.000000	100.776715
2276.000000	100.776203
2275.000000	100.775682
2274.000000	100.775142
2273.000000	100.774585
2272.000000	100.774035
2271.000000	100.773516
2270.000000	100.773045
2269.000000	100.772630
2268.000000	100.772262
2267.000000	100.771904
2266.000000	100.771504
2265.000000	100.771039
2264.000000	100.770538
2263.000000	100.770042
2262.000000	100.769572
2261.000000	100.769148
2260.000000	100.768809
2259.000000	100.768564
2258.000000	100.768327
2257.000000	100.767968
2256.000000	100.767443
2255.000000	100.766842
2254.000000	100.766333
2253.000000	100.766058
2252.000000	100.766070
2251.000000	100.766264
2250.000000	100.766399
2249.000000	100.766314
2248.000000	100.766104
2247.000000	100.765973
2246.000000	100.765882
2245.000000	100.765600
2244.000000	100.765129
2243.000000	100.764746
2242.000000	100.764562
2241.000000	100.764339
2240.000000	100.763868
2239.000000	100.763272
2238.000000	100.762784
2237.000000	100.762487
2236.000000	100.762388
2235.000000	100.762533
2234.000000	100.762889
2233.000000	100.763305
2232.000000	100.763712
2231.000000	100.764114
2230.000000	100.764357
2229.000000	100.764262
2228.000000	100.764059
2227.000000	100.764293
2226.000000	100.765106
2225.000000	100.766021
2224.000000	100.766660
2223.000000	100.767220
2222.000000	100.767895
2221.000000	100.768302
2220.000000	100.767991
2219.000000	100.767159
2218.000000	100.766363
2217.000000	100.765773
2216.000000	100.765202
2215.000000	100.764623
2214.000000	100.764155
2213.000000	100.763722
2212.000000	100.763279
2211.000000	100.763164
2210.000000	100.763681
2209.000000	100.764574
2208.000000	100.765491
2207.000000	100.766703
2206.000000	100.768629
2205.000000	100.770797
2204.000000	100.772084
2203.000000	100.772103
2202.000000	100.771689
2201.000000	100.771822
2200.000000	100.772486
2199.000000	100.772975
2198.000000	100.772878
2197.000000	100.772377
2196.000000	100.771931
2195.000000	100.772030
2194.000000	100.772962
2193.000000	100.774425
2192.000000	100.775539
2191.000000	100.775713
2190.000000	100.775359
2189.000000	100.775423
2188.000000	100.776292
2187.000000	100.777492
2186.000000	100.778389
2185.000000	100.778716
2184.000000	100.778403
2183.000000	100.777426
2182.000000	100.776064
2181.000000	100.774921
2180.000000	100.774392
2179.000000	100.774330
2178.000000	100.774390
2177.000000	100.774469
2176.000000	100.774635
2175.000000	100.774858
2174.000000	100.775078
2173.000000	100.775385
2172.000000	100.775854
2171.000000	100.776298
2170.000000	100.776448
2169.000000	100.776318
2168.000000	100.776187
2167.000000	100.776219
2166.000000	100.776300
2165.000000	100.776259
2164.000000	100.776102
2163.000000	100.775959
2162.000000	100.775896
2161.000000	100.775880
2160.000000	100.775858
2159.000000	100.775859
2158.000000	100.776038
2157.000000	100.776582
2156.000000	100.777505
2155.000000	100.778515
2154.000000	100.779161
2153.000000	100.779201
2152.000000	100.778760
2151.000000	100.778215
2150.000000	100.777916
2149.000000	100.777993
2148.000000	100.778391
2147.000000	100.778965
2146.000000	100.779583
2145.000000	100.780182
2144.000000	100.780786
2143.000000	100.781451
2142.000000	100.782173
2141.000000	100.782838
2140.000000	100.783281
2139.000000	100.783433
2138.000000	100.783406
2137.000000	100.783411
2136.000000	100.783564
2135.000000	100.783827
2134.000000	100.784165
2133.000000	100.784671
2132.000000	100.785434
2131.000000	100.786319
2130.000000	100.786980
2129.000000	100.787205
2128.000000	100.787108
2127.000000	100.787031
2126.000000	100.787198
2125.000000	100.787543
2124.000000	100.787874
2123.000000	100.788134
2122.000000	100.788484
2121.000000	100.789118
2120.000000	100.790041
2119.000000	100.791012
2118.000000	100.791746
2117.000000	100.792168
2116.000000	100.792420
2115.000000	100.792676
2114.000000	100.793003
2113.000000	100.793428
2112.000000	100.794025
2111.000000	100.794822
2110.000000	100.795684
2109.000000	100.796431
2108.000000	100.797064
2107.000000	100.797757
2106.000000	100.798624
2105.000000	100.799565
2104.000000	100.800354
2103.000000	100.800832
2102.000000	100.801006
2101.000000	100.801058
2100.000000	100.801194
2099.000000	100.801450
2098.000000	100.801685
2097.000000	100.801852
2096.000000	100.802177
2095.000000	100.802916
2094.000000	100.803984
2093.000000	100.805012
2092.000000	100.805799
2091.000000	100.806511
2090.000000	100.807332
2089.000000	100.808144
2088.000000	100.808721
2087.000000	100.809145
2086.000000	100.809759
2085.000000	100.810690
2084.000000	100.811597
2083.000000	100.812042
2082.000000	100.812044
2081.000000	100.812155
2080.000000	100.812942
2079.000000	100.814409
2078.000000	100.815924
2077.000000	100.816742
2076.000000	100.816667
2075.000000	100.816212
2074.000000	100.816228
2073.000000	100.817213
2072.000000	100.818923
2071.000000	100.820521
2070.000000	100.821224
2069.000000	100.820841
2068.000000	100.819805
2067.000000	100.818778
2066.000000	100.818308
2065.000000	100.818726
2064.000000	100.819992
2063.000000	100.821564
2062.000000	100.822665
2061.000000	100.822889
2060.000000	100.822421
2059.000000	100.821626
2058.000000	100.820627
2057.000000	100.819498
2056.000000	100.818592
2055.000000	100.818327
2054.000000	100.818671
2053.000000	100.819116
2052.000000	100.819215
2051.000000	100.818996
2050.000000	100.818733
2049.000000	100.818466
2048.000000	100.817918
2047.000000	100.816887
2046.000000	100.815581
2045.000000	100.814452
2044.000000	100.813678
2043.000000	100.812974
2042.000000	100.812027
2041.000000	100.810966
2040.000000	100.810188
2039.000000	100.809749
2038.000000	100.809237
2037.000000	100.808304
2036.000000	100.807109
2035.000000	100.806101
2034.000000	100.805490
2033.000000	100.805108
2032.000000	100.804613
2031.000000	100.803672
2030.000000	100.802086
2029.000000	100.799975
2028.000000	100.797884
2027.000000	100.796442
2026.000000	100.795860
2025.000000	100.795827
2024.000000	100.795773
2023.000000	100.795283
2022.000000	100.794252
2021.000000	100.792851
2020.000000	100.791424
2019.000000	100.790289
2018.000000	100.789524
2017.000000	100.788931
2016.000000	100.788223
2015.000000	100.787261
2014.000000	100.786111
2013.000000	100.784963
2012.000000	100.783994
2011.000000	100.783194
2010.000000	100.782324
2009.000000	100.781140
2008.000000	100.779698
2007.000000	100.778327
2006.000000	100.777296
2005.000000	100.776576
2004.000000	100.775976
2003.000000	100.775390
2002.000000	100.774811
2001.000000	100.774255
2000.000000	100.773640
1999.000000	100.772788
1998.000000	100.771545
1997.000000	100.770020
1996.000000	100.768819
1995.000000	100.768747
1994.000000	100.770112
1993.000000	100.772302
1992.000000	100.774079
1991.000000	100.774709
1990.000000	100.774576
1989.000000	100.774530
1988.000000	100.774814
1987.000000	100.774842
1986.000000	100.774079
1985.000000	100.772839
1984.000000	100.771979
1983.000000	100.771936
1982.000000	100.772370
1981.000000	100.772735
1980.000000	100.772775
1979.000000	100.772508
1978.000000	100.772045
1977.000000	100.771575
1976.000000	100.771304
1975.000000	100.771263
1974.000000	100.771406
1973.000000	100.771898
1972.000000	100.772969
1971.000000	100.774381
1970.000000	100.775387
1969.000000	100.775521
1968.000000	100.775092
1967.000000	100.774748
1966.000000	100.774656
1965.000000	100.774538
1964.000000	100.774331
1963.000000	100.774254
1962.000000	100.774324
1961.000000	100.774275
1960.000000	100.774043
1959.000000	100.773996
1958.000000	100.774406
1957.000000	100.774918
1956.000000	100.774901
1955.000000	100.774256
1954.000000	100.773605
1953.000000	100.773601
1952.000000	100.774226
1951.000000	100.774765
1950.000000	100.774492
1949.000000	100.773350
1948.000000	100.771957
1947.000000	100.770992
1946.000000	100.770584
1945.000000	100.770411
1944.000000	100.770180
1943.000000	100.769721
1942.000000	100.768779
1941.000000	100.767236
1940.000000	100.765546
1939.000000	100.764432
1938.000000	100.764016
1937.000000	100.763651
1936.000000	100.762833
1935.000000	100.761915
1934.000000	100.761449
1933.000000	100.761296
1932.000000	100.761118
1931.000000	100.761145
1930.000000	100.761675
1929.000000	100.762070
1928.000000	100.761020
1927.000000	100.758320
1926.000000	100.755411
1925.000000	100.754092
1924.000000	100.754791
1923.000000	100.756087
1922.000000	100.756145
1921.000000	100.754323
1920.000000	100.751368
1919.000000	100.748468
1918.000000	100.746061
1917.000000	100.743682
1916.000000	100.741064
1915.000000	100.738852
1914.000000	100.737839
1913.000000	100.737550
1912.000000	100.736300
1911.000000	100.732858
1910.000000	100.727957
1909.000000	100.723866
1908.000000	100.722074
1907.000000	100.721970
1906.000000	100.721255
1905.000000	100.718076
1904.000000	100.712856
1903.000000	100.707820
1902.000000	100.704902
1901.000000	100.703703
1900.000000	100.701860
1899.000000	100.697785
1898.000000	100.692161
1897.000000	100.686944
1896.000000	100.683506
1895.000000	100.681739
1894.000000	100.680696
1893.000000	100.679353
1892.000000	100.677074
1891.000000	100.673916
1890.000000	100.670617
1889.000000	100.668040
1888.000000	100.666432
1887.000000	100.665312
1886.000000	100.664122
1885.000000	100.662674
1884.000000	100.661191
1883.000000	100.660018
1882.000000	100.659207
1881.000000	100.658102
1880.000000	100.655703
1879.000000	100.652231
1878.000000	100.649474
1877.000000	100.649069
1876.000000	100.651091
1875.000000	100.654186
1874.000000	100.656860
1873.000000	100.658534
1872.000000	100.659376
1871.000000	100.659561
1870.000000	100.658765
1869.000000	100.656659
1868.000000	100.654467
1867.000000	100.654593
1866.000000	100.658003
1865.000000	100.663320
1864.000000	100.668365
1863.000000	100.672127
1862.000000	100.675218
1861.000000	100.678486
1860.000000	100.681697
1859.000000	100.684077
1858.000000	100.685641
1857.000000	100.687411
1856.000000	100.690575
1855.000000	100.695661
1854.000000	100.702044
1853.000000	100.708105
1852.000000	100.711817
1851.000000	100.713091
1850.000000	100.714266
1849.000000	100.717430
1848.000000	100.722335
1847.000000	100.727145
1846.000000	100.730988
1845.000000	100.734375
1844.000000	100.737914
1843.000000	100.741399
1842.000000	100.743992
1841.000000	100.744912
1840.000000	100.744058
1839.000000	100.742483
1838.000000	100.741624
1837.000000	100.742176
1836.000000	100.743285
1835.000000	100.743222
1834.000000	100.741473
1833.000000	100.739404
1832.000000	100.738802
1831.000000	100.740317
1830.000000	100.742323
1829.000000	100.742603
1828.000000	100.741238
1827.000000	100.739959
1826.000000	100.740172
1825.000000	100.741830
1824.000000	100.743724
1823.000000	100.744674
1822.000000	100.744216
1821.000000	100.742601
1820.000000	100.740768
1819.000000	100.739993
1818.000000	100.740652
1817.000000	100.741845
1816.000000	100.742269
1815.000000	100.741456
1814.000000	100.740301
1813.000000	100.739765
1812.000000	100.739781
1811.000000	100.739391
1810.000000	100.738137
1809.000000	100.737110
1808.000000	100.737441
1807.000000	100.738664
1806.000000	100.739382
1805.000000	100.739176
1804.000000	100.739137
1803.000000	100.740149
1802.000000	100.741551
1801.000000	100.741688
1800.000000	100.740420
1799.000000	100.739634
1798.000000	100.740673
1797.000000	100.742867
1796.000000	100.744430
1795.000000	100.744334
1794.000000	100.743176
1793.000000	100.742445
1792.000000	100.743503
1791.000000	100.746649
1790.000000	100.750657
1789.000000	100.753786
1788.000000	100.755314
1787.000000	100.756041
1786.000000	100.757245
1785.000000	100.759006
1784.000000	100.759986
1783.000000	100.759195
1782.000000	100.757691
1781.000000	100.757078
1780.000000	100.758116
1779.000000	100.760640
1778.000000	100.763801
1777.000000	100.766594
1776.000000	100.768016
1775.000000	100.768362
1774.000000	100.769482
1773.000000	100.772541
1772.000000	100.776213
1771.000000	100.779076
1770.000000	100.781687
1769.000000	100.785010
1768.000000	100.788944
1767.000000	100.792374
1766.000000	100.794519
1765.000000	100.795438
1764.000000	100.795733
1763.000000	100.796066
1762.000000	100.796988
1761.000000	100.798528
1760.000000	100.800380
1759.000000	100.802106
1758.000000	100.803780
1757.000000	100.805703
1756.000000	100.807219
1755.000000	100.807658
1754.000000	100.806999
1753.000000	100.805608
1752.000000	100.803625
1751.000000	100.801056
1750.000000	100.798354
1749.000000	100.796972
1748.000000	100.797716
1747.000000	100.799599
1746.000000	100.801034
1745.000000	100.800778
1744.000000	100.799122
1743.000000	100.797455
1742.000000	100.796677
1741.000000	100.796560
1740.000000	100.796342
1739.000000	100.795473
1738.000000	100.794206
1737.000000	100.793396
1736.000000	100.794199
1735.000000	100.797244
1734.000000	100.800105
1733.000000	100.799868
1732.000000	100.797063
1731.000000	100.793203
1730.000000	100.789319
1729.000000	100.786530
1728.000000	100.785240
1727.000000	100.785116
1726.000000	100.785656
1725.000000	100.786245
1724.000000	100.786516
1723.000000	100.785906
1722.000000	100.783645
1721.000000	100.779822
1720.000000	100.775655
1719.000000	100.772892
1718.000000	100.771834
1717.000000	100.771179
1716.000000	100.770483
1715.000000	100.770158
1714.000000	100.769907
1713.000000	100.769195
1712.000000	100.767797
1711.000000	100.765604
1710.000000	100.762645
1709.000000	100.759157
1708.000000	100.755734
1707.000000	100.753420
1706.000000	100.751918
1705.000000	100.748952
1704.000000	100.743032
1703.000000	100.735329
1702.000000	100.728827
1701.000000	100.725749
1700.000000	100.724252
1699.000000	100.721165
1698.000000	100.716427
1697.000000	100.711117
1696.000000	100.706502
1695.000000	100.704081
1694.000000	100.703854
1693.000000	100.704126
1692.000000	100.703169
1691.000000	100.699777
1690.000000	100.693715
1689.000000	100.686226
1688.000000	100.678680
1687.000000	100.671726
1686.000000	100.665239
1685.000000	100.658783
1684.000000	100.652458
1683.000000	100.648488
1682.000000	100.647890
1681.000000	100.648150
1680.000000	100.646832
1679.000000	100.643209
1678.000000	100.637997
1677.000000	100.632659
1676.000000	100.628883
1675.000000	100.627556
1674.000000	100.627991
1673.000000	100.628141
1672.000000	100.626747
1671.000000	100.624018
1670.000000	100.620798
1669.000000	100.618009
1668.000000	100.615851
1667.000000	100.613786
1666.000000	100.611360
1665.000000	100.609166
1664.000000	100.608620
1663.000000	100.609479
1662.000000	100.609727
1661.000000	100.608118
1660.000000	100.604993
1659.000000	100.601334
1658.000000	100.596692
1657.000000	100.589616
1656.000000	100.580025
1655.000000	100.571784
1654.000000	100.567787
1653.000000	100.563389
1652.000000	100.558798
1651.000000	100.557594
1650.000000	100.557018
1649.000000	100.555330
1648.000000	100.552330
1647.000000	100.548295
1646.000000	100.545803
1645.000000	100.546657
1644.000000	100.548473
1643.000000	100.548143
1642.000000	100.546519
1641.000000	100.545939
1640.000000	100.546833
1639.000000	100.548235
1638.000000	100.549577
1637.000000	100.552100
1636.000000	100.555402
1635.000000	100.557653
1634.000000	100.558316
1633.000000	100.557581
1632.000000	100.555964
1631.000000	100.554401
1630.000000	100.553865
1629.000000	100.554426
1628.000000	100.555679
1627.000000	100.557917
1626.000000	100.562089
1625.000000	100.567666
1624.000000	100.572108
1623.000000	100.573088
1622.000000	100.572050
1621.000000	100.571995
1620.000000	100.573467
1619.000000	100.576086
1618.000000	100.579866
1617.000000	100.583915
1616.000000	100.586478
1615.000000	100.587525
1614.000000	100.588526
1613.000000	100.590911
1612.000000	100.595724
1611.000000	100.603011
1610.000000	100.611681
1609.000000	100.619724
1608.000000	100.625338
1607.000000	100.628199
1606.000000	100.629964
1605.000000	100.632490
1604.000000	100.636193
1603.000000	100.640524
1602.000000	100.644995
1601.000000	100.649689
1600.000000	100.654540
1599.000000	100.658931
1598.000000	100.662469
1597.000000	100.665564
1596.000000	100.668741
1595.000000	100.671661
1594.000000	100.673639
1593.000000	100.674981
1592.000000	100.677026
1591.000000	100.680811
1590.000000	100.686136
1589.000000	100.691930
1588.000000	100.697176
1587.000000	100.701276
1586.000000	100.703854
1585.000000	100.704909
1584.000000	100.704950
1583.000000	100.705287
1582.000000	100.707294
1581.000000	100.711186
1580.000000	100.715803
1579.000000	100.719775
1578.000000	100.722515
1577.000000	100.724219
1576.000000	100.725737
1575.000000	100.727890
1574.000000	100.730559
1573.000000	100.733141
1572.000000	100.735664
1571.000000	100.738646
1570.000000	100.742027
1569.000000	100.745110
1568.000000	100.747564
1567.000000	100.749773
1566.000000	100.752044
1565.000000	100.754463
1564.000000	100.756765
1563.000000	100.758535
1562.000000	100.759922
1561.000000	100.761736
1560.000000	100.765272
1559.000000	100.767485
1558.000000	100.765859
1557.000000	100.764398
1556.000000	100.765042
1555.000000	100.767190
1554.000000	100.770409
1553.000000	100.773038
1552.000000	100.773959
1551.000000	100.773552
1550.000000	100.772961
1549.000000	100.772902
1548.000000	100.773091
1547.000000	100.773146
1546.000000	100.773438
1545.000000	100.774411
1544.000000	100.775745
1543.000000	100.776662
1542.000000	100.776422
1541.000000	100.774130
1540.000000	100.769503
1539.000000	100.765914
1538.000000	100.766219
1537.000000	100.768631
1536.000000	100.770626
1535.000000	100.771034
1534.000000	100.769848
1533.000000	100.768387
1532.000000	100.768470
1531.000000	100.769989
1530.000000	100.770988
1529.000000	100.770276
1528.000000	100.768352
1527.000000	100.766718
1526.000000	100.766368
1525.000000	100.766800
1524.000000	100.767071
1523.000000	100.767234
1522.000000	100.767625
1521.000000	100.767960
1520.000000	100.768041
1519.000000	100.768208
1518.000000	100.769047
1517.000000	100.771041
1516.000000	100.774008
1515.000000	100.777046
1514.000000	100.779514
1513.000000	100.781309
1512.000000	100.782681
1511.000000	100.783483
1510.000000	100.783714
1509.000000	100.784102
1508.000000	100.786111
1507.000000	100.788676
1506.000000	100.789318
1505.000000	100.788579
1504.000000	100.787199
1503.000000	100.785415
1502.000000	100.784179
1501.000000	100.784174
1500.000000	100.785445
1499.000000	100.787750
1498.000000	100.790650
1497.000000	100.792622
1496.000000	100.792041
1495.000000	100.789461
1494.000000	100.787186
1493.000000	100.786358
1492.000000	100.786088
1491.000000	100.784368
1490.000000	100.780398
1489.000000	100.776477
1488.000000	100.775415
1487.000000	100.777047
1486.000000	100.779301
1485.000000	100.780693
1484.000000	100.780720
1483.000000	100.779924
1482.000000	100.779384
1481.000000	100.779856
1480.000000	100.781028
1479.000000	100.781843
1478.000000	100.781670
1477.000000	100.780655
1476.000000	100.779209
1475.000000	100.777135
1474.000000	100.774015
1473.000000	100.769983
1472.000000	100.766417
1471.000000	100.764496
1470.000000	100.763499
1469.000000	100.762167
1468.000000	100.760177
1467.000000	100.757844
1466.000000	100.755723
1465.000000	100.754352
1464.000000	100.754099
1463.000000	100.754859
1462.000000	100.755591
1461.000000	100.755394
1460.000000	100.754352
1459.000000	100.753425
1458.000000	100.752908
1457.000000	100.751214
1456.000000	100.748197
1455.000000	100.745927
1454.000000	100.745058
1453.000000	100.744854
1452.000000	100.744487
1451.000000	100.743340
1450.000000	100.741596
1449.000000	100.740356
1448.000000	100.740691
1447.000000	100.741979
1446.000000	100.742568
1445.000000	100.741344
1444.000000	100.738919
1443.000000	100.737012
1442.000000	100.736217
1441.000000	100.735433
1440.000000	100.733439
1439.000000	100.730693
1438.000000	100.728824
1437.000000	100.728747
1436.000000	100.729576
1435.000000	100.730320
1434.000000	100.730846
1433.000000	100.731177
1432.000000	100.731416
1431.000000	100.731819
1430.000000	100.732693
1429.000000	100.734193
1428.000000	100.736095
1427.000000	100.737825
1426.000000	100.739285
1425.000000	100.740356
1424.000000	100.740389
1423.000000	100.739048
1422.000000	100.737047
1421.000000	100.735801
1420.000000	100.736248
1419.000000	100.737969
1418.000000	100.740335
1417.000000	100.743904
1416.000000	100.748800
1415.000000	100.753702
1414.000000	100.756954
1413.000000	100.757861
1412.000000	100.757049
1411.000000	100.755682
1410.000000	100.754669
1409.000000	100.754677
1408.000000	100.756180
1407.000000	100.758701
1406.000000	100.760916
1405.000000	100.761830
1404.000000	100.762196
1403.000000	100.763939
1402.000000	100.767913
1401.000000	100.773458
1400.000000	100.778919
1399.000000	100.782399
1398.000000	100.783357
1397.000000	100.783173
1396.000000	100.783723
1395.000000	100.785814
1394.000000	100.788812
1393.000000	100.791359
1392.000000	100.792877
1391.000000	100.794217
1390.000000	100.796991
1389.000000	100.802119
1388.000000	100.808448
1387.000000	100.813219
1386.000000	100.815066
1385.000000	100.815067
1384.000000	100.814536
1383.000000	100.813713
1382.000000	100.812431
1381.000000	100.811182
1380.000000	100.810768
1379.000000	100.811224
1378.000000	100.811780
1377.000000	100.811761
1376.000000	100.811143
1375.000000	100.810349
1374.000000	100.810145
1373.000000	100.811293
1372.000000	100.813709
1371.000000	100.816100
1370.000000	100.817190
1369.000000	100.816898
1368.000000	100.816288
1367.000000	100.816350
1366.000000	100.817025
1365.000000	100.817743
1364.000000	100.818257
1363.000000	100.818682
1362.000000	100.819312
1361.000000	100.820488
1360.000000	100.822046
1359.000000	100.823158
1358.000000	100.823186
1357.000000	100.822368
1356.000000	100.821460
1355.000000	100.820823
1354.000000	100.820204
1353.000000	100.819330
1352.000000	100.818236
1351.000000	100.816775
1350.000000	100.815036
1349.000000	100.814091
1348.000000	100.815533
1347.000000	100.819643
1346.000000	100.824575
1345.000000	100.828063
1344.000000	100.829212
1343.000000	100.828147
1342.000000	100.824807
1341.000000	100.819294
1340.000000	100.813328
1339.000000	100.809837
1338.000000	100.810144
1337.000000	100.812830
1336.000000	100.815865
1335.000000	100.818551
1334.000000	100.821054
1333.000000	100.823277
1332.000000	100.824877
1331.000000	100.825724
1330.000000	100.825705
1329.000000	100.824433
1328.000000	100.821937
1327.000000	100.819551
1326.000000	100.819294
1325.000000	100.821736
1324.000000	100.824962
1323.000000	100.826137
1322.000000	100.824135
1321.000000	100.820561
1320.000000	100.818248
1319.000000	100.818608
1318.000000	100.820392
1317.000000	100.821140
1316.000000	100.819670
1315.000000	100.817037
1314.000000	100.815395
1313.000000	100.816101
1312.000000	100.818708
1311.000000	100.821489
1310.000000	100.822866
1309.000000	100.822519
1308.000000	100.821503
1307.000000	100.821311
1306.000000	100.822654
1305.000000	100.824863
1304.000000	100.826430
1303.000000	100.826209
1302.000000	100.824338
1301.000000	100.822118
1300.000000	100.820651
1299.000000	100.819490
1298.000000	100.817012
1297.000000	100.812467
1296.000000	100.807383
1295.000000	100.804418
1294.000000	100.804846
1293.000000	100.807839
1292.000000	100.812100
1291.000000	100.817115
1290.000000	100.822097
1289.000000	100.824526
1288.000000	100.821273
1287.000000	100.811823
1286.000000	100.799912
1285.000000	100.791044
1284.000000	100.788022
1283.000000	100.789022
1282.000000	100.789649
1281.000000	100.786853
1280.000000	100.781019
1279.000000	100.774686
1278.000000	100.769694
1277.000000	100.765883
1276.000000	100.762417
1275.000000	100.759850
1274.000000	100.760266
1273.000000	100.765014
1272.000000	100.772409
1271.000000	100.778168
1270.000000	100.778725
1269.000000	100.773928
1268.000000	100.766266
1267.000000	100.758344
1266.000000	100.751818
1265.000000	100.747887
1264.000000	100.746910
1263.000000	100.747110
1262.000000	100.745245
1261.000000	100.739797
1260.000000	100.732779
1259.000000	100.727466
1258.000000	100.724842
1257.000000	100.723068
1256.000000	100.719696
1255.000000	100.713450
1254.000000	100.704400
1253.000000	100.693336
1252.000000	100.680877
1251.000000	100.666901
1250.000000	100.651302
1249.000000	100.635387
1248.000000	100.621491
1247.000000	100.610594
1246.000000	100.601183
1245.000000	100.591067
1244.000000	100.579307
1243.000000	100.565945
1242.000000	100.551639
1241.000000	100.538510
1240.000000	100.529035
1239.000000	100.522001
1238.000000	100.511414
1237.000000	100.492197
1236.000000	100.465888
1235.000000	100.438395
1234.000000	100.413391
1233.000000	100.390842
1232.000000	100.370734
1231.000000	100.353510
1230.000000	100.336121
1229.000000	100.312205
1228.000000	100.278669
1227.000000	100.239593
1226.000000	100.201423
1225.000000	100.165661
1224.000000	100.127978
1223.000000	100.083041
1222.000000	100.028402
1221.000000	99.964934
1220.000000	99.895608
1219.000000	99.823706
1218.000000	99.750854
1217.000000	99.676439
1216.000000	99.598701
1215.000000	99.515656
1214.000000	99.425558
1213.000000	99.328453
1212.000000	99.227648
1211.000000	99.128067
1210.000000	99.032953
1209.000000	98.943464
1208.000000	98.860105
1207.000000	98.781337
1206.000000	98.701784
1205.000000	98.616322
1204.000000	98.526149
1203.000000	98.437052
1202.000000	98.351898
1201.000000	98.268937
1200.000000	98.187199
1199.000000	98.108149
1198.000000	98.030878
1197.000000	97.950838
1196.000000	97.865393
1195.000000	97.776578
1194.000000	97.686841
1193.000000	97.595990
1192.000000	97.503886
1191.000000	97.412242
1190.000000	97.321863
1189.000000	97.231303
1188.000000	97.139515
1187.000000	97.046689
1186.000000	96.952022
1185.000000	96.854511
1184.000000	96.756369
1183.000000	96.661128
1182.000000	96.567401
1181.000000	96.468839
1180.000000	96.361207
1179.000000	96.245489
1178.000000	96.123954
1177.000000	95.998295
1176.000000	95.871986
1175.000000	95.748510
1174.000000	95.625822
1173.000000	95.498273
1172.000000	95.365322
1171.000000	95.232557
1170.000000	95.103143
1169.000000	94.975072
1168.000000	94.848809
1167.000000	94.731139
1166.000000	94.629473
1165.000000	94.549010
1164.000000	94.497208
1163.000000	94.483094
1162.000000	94.508072
1161.000000	94.561870
1160.000000	94.628481
1159.000000	94.690893
1158.000000	94.731426
1157.000000	94.736468
1156.000000	94.703773
1155.000000	94.640678
1154.000000	94.555153
1153.000000	94.453595
1152.000000	94.345826
1151.000000	94.242816
1150.000000	94.146833
1149.000000	94.051366
1148.000000	93.952814
1147.000000	93.854585
1146.000000	93.758135
1145.000000	93.658958
1144.000000	93.554827
1143.000000	93.450000
1142.000000	93.347624
1141.000000	93.245271
1140.000000	93.141412
1139.000000	93.039064
1138.000000	92.939501
1137.000000	92.838913
1136.000000	92.734434
1135.000000	92.627460
1134.000000	92.518998
1133.000000	92.407959
1132.000000	92.295241
1131.000000	92.182617
1130.000000	92.067262
1129.000000	91.945614
1128.000000	91.822966
1127.000000	91.709736
1126.000000	91.606833
1125.000000	91.504279
1124.000000	91.395697
1123.000000	91.284234
1122.000000	91.172956
1121.000000	91.060343
1120.000000	90.947374
1119.000000	90.837896
1118.000000	90.729747
1117.000000	90.617119
1116.000000	90.503590
1115.000000	90.399773
1114.000000	90.304939
1113.000000	90.204671
1112.000000	90.091289
1111.000000	89.973291
1110.000000	89.860329
1109.000000	89.752897
1108.000000	89.651398
1107.000000	89.560563
1106.000000	89.478019
1105.000000	89.391278
1104.000000	89.293578
1103.000000	89.192316
1102.000000	89.096321
1101.000000	89.005534
1100.000000	88.917258
1099.000000	88.831343
1098.000000	88.744823
1097.000000	88.652994
1096.000000	88.559810
1095.000000	88.475738
1094.000000	88.402029
1093.000000	88.328665
1092.000000	88.250628
1091.000000	88.173975
1090.000000	88.103337
1089.000000	88.036177
1088.000000	87.971744
1087.000000	87.912737
1086.000000	87.856274
1085.000000	87.796831
1084.000000	87.739475
1083.000000	87.695651
1082.000000	87.664256
1081.000000	87.631969
1080.000000	87.593761
1079.000000	87.556864
1078.000000	87.522679
1077.000000	87.481963
1076.000000	87.431401
1075.000000	87.377904
1074.000000	87.322060
1073.000000	87.252818
1072.000000	87.162432
1071.000000	87.051894
1070.000000	86.919011
1069.000000	86.756808
1068.000000	86.567266
1067.000000	86.362025
1066.000000	86.146907
1065.000000	85.921353
1064.000000	85.695366
1063.000000	85.488251
1062.000000	85.305280
1061.000000	85.133144
1060.000000	84.963137
1059.000000	84.800969
1058.000000	84.649551
1057.000000	84.500892
1056.000000	84.350662
1055.000000	84.202704
1054.000000	84.053538
1053.000000	83.890330
1052.000000	83.710563
1051.000000	83.525681
1050.000000	83.339233
1049.000000	83.141893
1048.000000	82.933515
1047.000000	82.726867
1046.000000	82.524523
1045.000000	82.314760
1044.000000	82.094039
1043.000000	81.871993
1042.000000	81.651194
1041.000000	81.424202
1040.000000	81.194977
1039.000000	80.980122
1038.000000	80.783168
1037.000000	80.591016
1036.000000	80.402260
1035.000000	80.234639
1034.000000	80.095961
1033.000000	79.971298
1032.000000	79.847964
1031.000000	79.731187
1030.000000	79.626117
1029.000000	79.526779
1028.000000	79.432380
1027.000000	79.353171
1026.000000	79.290315
1025.000000	79.229927
1024.000000	79.165404
1023.000000	79.105733
1022.000000	79.054404
1021.000000	79.000969
1020.000000	78.940785
1019.000000	78.882246
1018.000000	78.827223
1017.000000	78.765571
1016.000000	78.696455
1015.000000	78.634085
1014.000000	78.584379
1013.000000	78.536322
1012.000000	78.483737
1011.000000	78.435307
1010.000000	78.395650
1009.000000	78.356725
1008.000000	78.315357
1007.000000	78.279684
1006.000000	78.251670
1005.000000	78.223278
1004.000000	78.196206
1003.000000	78.184537
1002.000000	78.190559
1001.000000	78.198228
1000.000000	78.198114
999.000000	78.199380
998.000000	78.209805
997.000000	78.223895
996.000000	78.238816
995.000000	78.263152
994.000000	78.301079
993.000000	78.344314
992.000000	78.386505
991.000000	78.429935
990.000000	78.473674
989.000000	78.512830
988.000000	78.554244
987.000000	78.615039
986.000000	78.700608
985.000000	78.800726
984.000000	78.910447
983.000000	79.036738
982.000000	79.181357
981.000000	79.336592
980.000000	79.502015
979.000000	79.686401
978.000000	79.888548
977.000000	80.094912
976.000000	80.300857
975.000000	80.516376
974.000000	80.746640
973.000000	80.984491
972.000000	81.225624
971.000000	81.473628
970.000000	81.726905
969.000000	81.978565
968.000000	82.232202
967.000000	82.499033
966.000000	82.775443
965.000000	83.041841
964.000000	83.288561
963.000000	83.525248
962.000000	83.760070
961.000000	83.987819
960.000000	84.204988
959.000000	84.419371
958.000000	84.636411
957.000000	84.850185
956.000000	85.055323
955.000000	85.254946
954.000000	85.450644
953.000000	85.636975
952.000000	85.811847
951.000000	85.980622
950.000000	86.144609
949.000000	86.296718
948.000000	86.433570
947.000000	86.561354
946.000000	86.685419
945.000000	86.804027
944.000000	86.915480
943.000000	87.020827
942.000000	87.117285
941.000000	87.200982
940.000000	87.279356
939.000000	87.368313
938.000000	87.472118
937.000000	87.577332
936.000000	87.671457
935.000000	87.757246
934.000000	87.844661
933.000000	87.938663
932.000000	88.039023
931.000000	88.143107
930.000000	88.245632
929.000000	88.344136
928.000000	88.445948
927.000000	88.560023
926.000000	88.680695
925.000000	88.790354
924.000000	88.880457
923.000000	88.960261
922.000000	89.043195
921.000000	89.134045
920.000000	89.230455
919.000000	89.326756
918.000000	89.414899
917.000000	89.491487
916.000000	89.564862
915.000000	89.646268
914.000000	89.735101
913.000000	89.823408
912.000000	89.913341
911.000000	90.017280
910.000000	90.141171
909.000000	90.281204
908.000000	90.436557
907.000000	90.610899
906.000000	90.800406
905.000000	90.995485
904.000000	91.197039
903.000000	91.416622
902.000000	91.656732
901.000000	91.903560
900.000000	92.142833
899.000000	92.371935
898.000000	92.593857
897.000000	92.810519
896.000000	93.024813
895.000000	93.238645
894.000000	93.446003
893.000000	93.637286
892.000000	93.812407
891.000000	93.980774
890.000000	94.147642
889.000000	94.310171
888.000000	94.467810
887.000000	94.625658
886.000000	94.785031
885.000000	94.940562
884.000000	95.089379
883.000000	95.234328
882.000000	95.376299
881.000000	95.512814
880.000000	95.646392
879.000000	95.784585
878.000000	95.928470
877.000000	96.069464
876.000000	96.200159
875.000000	96.321155
874.000000	96.437160
873.000000	96.554737
872.000000	96.683049
871.000000	96.826224
870.000000	96.974019
869.000000	97.110235
868.000000	97.231814
867.000000	97.351135
866.000000	97.479122
865.000000	97.614721
864.000000	97.751517
863.000000	97.885006
862.000000	98.011191
861.000000	98.126762
860.000000	98.233669
859.000000	98.336908
858.000000	98.435891
857.000000	98.524475
856.000000	98.601119
855.000000	98.672549
854.000000	98.745459
853.000000	98.819706
852.000000	98.890575
851.000000	98.952666
850.000000	99.002029
849.000000	99.040326
848.000000	99.076012
847.000000	99.114916
846.000000	99.150851
845.000000	99.172994
844.000000	99.180688
843.000000	99.181455
842.000000	99.175125
841.000000	99.150945
840.000000	99.102603
839.000000	99.036606
838.000000	98.963366
837.000000	98.888967
836.000000	98.818654
835.000000	98.758758
834.000000	98.709923
833.000000	98.665654
832.000000	98.621918
831.000000	98.581848
830.000000	98.548419
829.000000	98.520828
828.000000	98.502386
827.000000	98.503787
826.000000	98.532707
825.000000	98.585201
824.000000	98.648854
823.000000	98.706805
822.000000	98.740309
821.000000	98.740172
820.000000	98.716881
819.000000	98.688726
818.000000	98.658898
817.000000	98.613411
816.000000	98.540633
815.000000	98.440293
814.000000	98.310454
813.000000	98.138281
812.000000	97.910482
811.000000	97.623085
810.000000	97.273976
809.000000	96.855446
808.000000	96.363427
807.000000	95.807374
806.000000	95.203512
805.000000	94.566837
804.000000	93.919148
803.000000	93.295980
802.000000	92.733711
801.000000	92.255432
800.000000	91.876011
799.000000	91.609028
798.000000	91.458647
797.000000	91.413902
796.000000	91.457515
795.000000	91.570425
794.000000	91.725621
793.000000	91.893152
792.000000	92.056967
791.000000	92.213723
790.000000	92.351243
789.000000	92.443383
788.000000	92.472528
787.000000	92.442552
786.000000	92.361202
785.000000	92.223661
784.000000	92.026413
783.000000	91.788557
782.000000	91.546292
781.000000	91.330637
780.000000	91.159890
779.000000	91.048328
778.000000	91.011883
777.000000	91.065287
776.000000	91.214238
775.000000	91.444023
774.000000	91.716916
773.000000	91.992037
772.000000	92.249847
771.000000	92.490121
770.000000	92.710435
769.000000	92.900072
768.000000	93.054187
767.000000	93.179110
766.000000	93.280687
765.000000	93.360126
764.000000	93.425099
763.000000	93.492305
762.000000	93.572762
761.000000	93.664089
760.000000	93.761406
759.000000	93.864967
758.000000	93.972244
757.000000	94.074107
756.000000	94.166455
755.000000	94.257426
754.000000	94.356569
753.000000	94.463519
752.000000	94.572234
751.000000	94.679498
750.000000	94.784343
749.000000	94.885029
748.000000	94.981450
747.000000	95.077254
746.000000	95.178011
745.000000	95.290780
744.000000	95.423365
743.000000	95.576294
742.000000	95.736764
741.000000	95.889937
740.000000	96.035644
739.000000	96.184207
738.000000	96.336821
737.000000	96.482047
736.000000	96.613045
735.000000	96.735344
734.000000	96.853703
733.000000	96.962320
732.000000	97.052805
731.000000	97.123160
730.000000	97.175000
729.000000	97.210303
728.000000	97.235407
727.000000	97.260898
726.000000	97.293285
725.000000	97.333107
724.000000	97.383264
723.000000	97.450603
722.000000	97.535643
721.000000	97.628628
720.000000	97.719773
719.000000	97.806127
718.000000	97.885009
717.000000	97.949989
716.000000	97.999747
715.000000	98.044402
714.000000	98.096776
713.000000	98.160986
712.000000	98.232589
711.000000	98.303910
710.000000	98.365503
709.000000	98.408264
708.000000	98.428528
707.000000	98.427865
706.000000	98.406833
705.000000	98.364417
704.000000	98.303013
703.000000	98.223079
702.000000	98.108884
701.000000	97.930217
700.000000	97.666859
699.000000	97.329252
698.000000	96.955764
697.000000	96.599522
696.000000	96.319588
695.000000	96.167091
694.000000	96.162753
693.000000	96.286738
692.000000	96.493144
691.000000	96.733171
690.000000	96.967580
689.000000	97.170669
688.000000	97.334550
687.000000	97.467426
686.000000	97.580348
685.000000	97.677213
684.000000	97.759749
683.000000	97.834311
682.000000	97.907184
681.000000	97.978223
680.000000	98.044935
679.000000	98.109104
678.000000	98.173962
677.000000	98.237974
676.000000	98.297712
675.000000	98.355158
674.000000	98.417078
673.000000	98.487512
672.000000	98.563977
671.000000	98.640948
670.000000	98.715117
669.000000	98.786915
668.000000	98.857592
667.000000	98.926267
666.000000	98.989433
665.000000	99.045893
664.000000	99.100285
663.000000	99.157216
662.000000	99.213964
661.000000	99.263322
660.000000	99.302213
659.000000	99.329856
658.000000	99.339863
657.000000	99.325097
656.000000	99.291274
655.000000	99.254781
654.000000	99.223949
653.000000	99.194906
652.000000	99.171145
651.000000	99.168486
650.000000	99.188610
649.000000	99.207298
648.000000	99.205602
647.000000	99.199079
646.000000	99.220708
645.000000	99.282399
644.000000	99.367685
643.000000	99.453608
642.000000	99.527573
641.000000	99.591562
640.000000	99.659387
639.000000	99.745146
638.000000	99.845819
637.000000	99.938663
636.000000	100.001634
635.000000	100.032537
634.000000	100.046469
633.000000	100.058157
632.000000	100.072007
631.000000	100.088577
630.000000	100.114831
629.000000	100.165703
628.000000	100.254377
627.000000	100.378198
626.000000	100.515901
625.000000	100.643556
624.000000	100.745885
623.000000	100.808611
622.000000	100.821146
621.000000	100.800673
620.000000	100.795324
619.000000	100.840021
618.000000	100.913136
617.000000	100.958521
616.000000	100.942561
615.000000	100.872083
614.000000	100.776498
613.000000	100.693192
612.000000	100.658648
611.000000	100.682393
610.000000	100.724431
609.000000	100.728614
608.000000	100.679962
607.000000	100.604775
606.000000	100.526515
605.000000	100.456091
604.000000	100.422802
603.000000	100.465617
602.000000	100.575197
601.000000	100.681901
600.000000	100.721021
599.000000	100.685384
598.000000	100.609101
597.000000	100.528776
596.000000	100.474683
595.000000	100.466337
594.000000	100.484387
593.000000	100.473938
592.000000	100.406897
591.000000	100.321224
590.000000	100.270921
589.000000	100.262063
588.000000	100.276525
587.000000	100.325046
586.000000	100.430693
585.000000	100.574681
584.000000	100.702010
583.000000	100.782449
582.000000	100.839355
581.000000	100.910736
580.000000	100.993413
579.000000	101.036130
578.000000	100.993051
577.000000	100.882757
576.000000	100.788223
575.000000	100.782019
574.000000	100.843587
573.000000	100.888914
572.000000	100.879492
571.000000	100.857855
570.000000	100.878982
569.000000	100.939015
568.000000	100.990132
567.000000	100.992597
566.000000	100.937485
565.000000	100.848836
564.000000	100.774199
563.000000	100.745172
562.000000	100.737473
561.000000	100.704400
560.000000	100.645357
559.000000	100.590309
558.000000	100.529173
557.000000	100.433877
556.000000	100.350270
555.000000	100.369452
554.000000	100.488775
553.000000	100.595786
552.000000	100.625774
551.000000	100.644522
550.000000	100.729100
