PE IR       SUBTECH     SPECTRUM    ASCII       PEDS        4.00        
   -1
Administrator 85_1.asc
24/05/15
14:11:15.00
24/05/15
14:11:42.00
Administrator
?品 085 用? Administrator 日期 Wednesday, May 15 2024
550.000000
#HDR
-1
-1
#GR
cm-1
%T
1.0
0.0
4000.000000
-1.000000
3451
8
103.410913
74.756375
#DATA
4000.000000	103.137463
3999.000000	103.135422
3998.000000	103.132039
3997.000000	103.128999
3996.000000	103.127345
3995.000000	103.126936
3994.000000	103.126993
3993.000000	103.127001
3992.000000	103.126750
3991.000000	103.125903
3990.000000	103.124225
3989.000000	103.122160
3988.000000	103.120683
3987.000000	103.120398
3986.000000	103.121088
3985.000000	103.122230
3984.000000	103.123619
3983.000000	103.125303
3982.000000	103.127039
3981.000000	103.128119
3980.000000	103.127906
3979.000000	103.126499
3978.000000	103.124748
3977.000000	103.123562
3976.000000	103.123116
3975.000000	103.122793
3974.000000	103.121872
3973.000000	103.120187
3972.000000	103.118203
3971.000000	103.116536
3970.000000	103.115465
3969.000000	103.114808
3968.000000	103.114088
3967.000000	103.112864
3966.000000	103.111114
3965.000000	103.109435
3964.000000	103.108846
3963.000000	103.110199
3962.000000	103.113495
3961.000000	103.117588
3960.000000	103.120675
3959.000000	103.121394
3958.000000	103.119593
3957.000000	103.116285
3956.000000	103.112788
3955.000000	103.109839
3954.000000	103.107530
3953.000000	103.105787
3952.000000	103.104635
3951.000000	103.103943
3950.000000	103.103199
3949.000000	103.101789
3948.000000	103.099588
3947.000000	103.097293
3946.000000	103.096091
3945.000000	103.096842
3944.000000	103.099404
3943.000000	103.102837
3942.000000	103.106244
3941.000000	103.109163
3940.000000	103.111218
3939.000000	103.111865
3938.000000	103.110666
3937.000000	103.107879
3936.000000	103.104658
3935.000000	103.102557
3934.000000	103.102609
3933.000000	103.104642
3932.000000	103.107273
3931.000000	103.108770
3930.000000	103.108137
3929.000000	103.105308
3928.000000	103.100751
3927.000000	103.095372
3926.000000	103.090603
3925.000000	103.087967
3924.000000	103.088125
3923.000000	103.090172
3922.000000	103.092190
3921.000000	103.092793
3920.000000	103.092116
3919.000000	103.091449
3918.000000	103.091902
3917.000000	103.093296
3916.000000	103.094383
3915.000000	103.094162
3914.000000	103.092897
3913.000000	103.091890
3912.000000	103.092388
3911.000000	103.094528
3910.000000	103.097237
3909.000000	103.099153
3908.000000	103.099705
3907.000000	103.099319
3906.000000	103.098964
3905.000000	103.099448
3904.000000	103.100945
3903.000000	103.102839
3902.000000	103.104028
3901.000000	103.103814
3900.000000	103.102436
3899.000000	103.100894
3898.000000	103.100182
3897.000000	103.100556
3896.000000	103.101701
3895.000000	103.103179
3894.000000	103.104663
3893.000000	103.105944
3892.000000	103.106977
3891.000000	103.107916
3890.000000	103.108810
3889.000000	103.109446
3888.000000	103.109650
3887.000000	103.109375
3886.000000	103.108810
3885.000000	103.108480
3884.000000	103.108726
3883.000000	103.109276
3882.000000	103.109620
3881.000000	103.109610
3880.000000	103.109647
3879.000000	103.110171
3878.000000	103.111141
3877.000000	103.112241
3876.000000	103.113174
3875.000000	103.113708
3874.000000	103.113815
3873.000000	103.113750
3872.000000	103.113868
3871.000000	103.114378
3870.000000	103.115270
3869.000000	103.116319
3868.000000	103.117144
3867.000000	103.117505
3866.000000	103.117493
3865.000000	103.117437
3864.000000	103.117751
3863.000000	103.118558
3862.000000	103.119523
3861.000000	103.120179
3860.000000	103.120387
3859.000000	103.120300
3858.000000	103.120259
3857.000000	103.120769
3856.000000	103.122363
3855.000000	103.124662
3854.000000	103.125945
3853.000000	103.125781
3852.000000	103.125622
3851.000000	103.125758
3850.000000	103.125575
3849.000000	103.124932
3848.000000	103.124233
3847.000000	103.123967
3846.000000	103.124229
3845.000000	103.124854
3844.000000	103.125825
3843.000000	103.127137
3842.000000	103.128579
3841.000000	103.129648
3840.000000	103.129456
3839.000000	103.127194
3838.000000	103.123271
3837.000000	103.119583
3836.000000	103.117983
3835.000000	103.118584
3834.000000	103.119804
3833.000000	103.119510
3832.000000	103.116646
3831.000000	103.112264
3830.000000	103.108626
3829.000000	103.107291
3828.000000	103.108399
3827.000000	103.111175
3826.000000	103.114965
3825.000000	103.119799
3824.000000	103.125600
3823.000000	103.130489
3822.000000	103.131098
3821.000000	103.126891
3820.000000	103.121979
3819.000000	103.119446
3818.000000	103.118718
3817.000000	103.117838
3816.000000	103.115420
3815.000000	103.111757
3814.000000	103.107601
3813.000000	103.102890
3812.000000	103.097558
3811.000000	103.092578
3810.000000	103.089759
3809.000000	103.090456
3808.000000	103.094266
3807.000000	103.099214
3806.000000	103.103701
3805.000000	103.107107
3804.000000	103.109202
3803.000000	103.109472
3802.000000	103.107330
3801.000000	103.104035
3800.000000	103.101449
3799.000000	103.099169
3798.000000	103.096231
3797.000000	103.093265
3796.000000	103.091729
3795.000000	103.091915
3794.000000	103.092513
3793.000000	103.092338
3792.000000	103.091794
3791.000000	103.092218
3790.000000	103.094032
3789.000000	103.095928
3788.000000	103.096090
3787.000000	103.094222
3786.000000	103.092173
3785.000000	103.092381
3784.000000	103.095652
3783.000000	103.100636
3782.000000	103.104990
3781.000000	103.106973
3780.000000	103.106586
3779.000000	103.105695
3778.000000	103.106230
3777.000000	103.108208
3776.000000	103.110291
3775.000000	103.111248
3774.000000	103.110754
3773.000000	103.109302
3772.000000	103.107582
3771.000000	103.105951
3770.000000	103.105034
3769.000000	103.105941
3768.000000	103.108601
3767.000000	103.111495
3766.000000	103.113407
3765.000000	103.114438
3764.000000	103.115316
3763.000000	103.116163
3762.000000	103.116370
3761.000000	103.115485
3760.000000	103.114315
3759.000000	103.114712
3758.000000	103.117200
3757.000000	103.120118
3756.000000	103.122320
3755.000000	103.124961
3754.000000	103.129924
3753.000000	103.136673
3752.000000	103.141362
3751.000000	103.141502
3750.000000	103.139790
3749.000000	103.139039
3748.000000	103.137718
3747.000000	103.133404
3746.000000	103.125331
3745.000000	103.114867
3744.000000	103.106837
3743.000000	103.105057
3742.000000	103.108060
3741.000000	103.112567
3740.000000	103.116282
3739.000000	103.118064
3738.000000	103.116978
3737.000000	103.112226
3736.000000	103.105053
3735.000000	103.098875
3734.000000	103.095371
3733.000000	103.092412
3732.000000	103.087972
3731.000000	103.083011
3730.000000	103.079638
3729.000000	103.079066
3728.000000	103.080756
3727.000000	103.082657
3726.000000	103.082813
3725.000000	103.080790
3724.000000	103.077294
3723.000000	103.073032
3722.000000	103.068711
3721.000000	103.064826
3720.000000	103.061289
3719.000000	103.057971
3718.000000	103.054614
3717.000000	103.050508
3716.000000	103.045449
3715.000000	103.040874
3714.000000	103.039219
3713.000000	103.040629
3712.000000	103.040869
3711.000000	103.034757
3710.000000	103.021227
3709.000000	103.003939
3708.000000	102.987884
3707.000000	102.976208
3706.000000	102.969412
3705.000000	102.966263
3704.000000	102.964380
3703.000000	102.960406
3702.000000	102.951870
3701.000000	102.939533
3700.000000	102.926732
3699.000000	102.916849
3698.000000	102.911372
3697.000000	102.908731
3696.000000	102.905701
3695.000000	102.900613
3694.000000	102.894421
3693.000000	102.888811
3692.000000	102.884023
3691.000000	102.878934
3690.000000	102.873765
3689.000000	102.872126
3688.000000	102.876378
3687.000000	102.882218
3686.000000	102.883605
3685.000000	102.878576
3684.000000	102.868645
3683.000000	102.855845
3682.000000	102.840976
3681.000000	102.824363
3680.000000	102.807466
3679.000000	102.793312
3678.000000	102.784118
3677.000000	102.776376
3676.000000	102.762617
3675.000000	102.744903
3674.000000	102.731145
3673.000000	102.720661
3672.000000	102.707754
3671.000000	102.686567
3670.000000	102.656211
3669.000000	102.625183
3668.000000	102.601056
3667.000000	102.582775
3666.000000	102.566687
3665.000000	102.550397
3664.000000	102.532176
3663.000000	102.511219
3662.000000	102.488572
3661.000000	102.467326
3660.000000	102.450754
3659.000000	102.439652
3658.000000	102.431088
3657.000000	102.420258
3656.000000	102.405308
3655.000000	102.388594
3654.000000	102.372949
3653.000000	102.360156
3652.000000	102.350859
3651.000000	102.342163
3650.000000	102.328754
3649.000000	102.310237
3648.000000	102.292172
3647.000000	102.277132
3646.000000	102.261897
3645.000000	102.242922
3644.000000	102.220433
3643.000000	102.197837
3642.000000	102.177249
3641.000000	102.157166
3640.000000	102.134770
3639.000000	102.110429
3638.000000	102.088637
3637.000000	102.073603
3636.000000	102.064668
3635.000000	102.056451
3634.000000	102.044063
3633.000000	102.027929
3632.000000	102.013096
3631.000000	102.004298
3630.000000	102.000099
3629.000000	101.995028
3628.000000	101.988525
3627.000000	101.981448
3626.000000	101.972438
3625.000000	101.962548
3624.000000	101.955024
3623.000000	101.952896
3622.000000	101.958569
3621.000000	101.972549
3620.000000	101.991932
3619.000000	102.011672
3618.000000	102.027945
3617.000000	102.039685
3616.000000	102.049280
3615.000000	102.060124
3614.000000	102.073788
3613.000000	102.090629
3612.000000	102.111250
3611.000000	102.135263
3610.000000	102.159389
3609.000000	102.178127
3608.000000	102.188770
3607.000000	102.194531
3606.000000	102.200022
3605.000000	102.206993
3604.000000	102.215274
3603.000000	102.224770
3602.000000	102.235774
3601.000000	102.247239
3600.000000	102.256758
3599.000000	102.262726
3598.000000	102.265942
3597.000000	102.269095
3596.000000	102.274872
3595.000000	102.283356
3594.000000	102.292322
3593.000000	102.299923
3592.000000	102.306571
3591.000000	102.314310
3590.000000	102.323594
3589.000000	102.331010
3588.000000	102.332847
3587.000000	102.331721
3586.000000	102.333226
3585.000000	102.337760
3584.000000	102.341405
3583.000000	102.341971
3582.000000	102.341050
3581.000000	102.341326
3580.000000	102.342871
3579.000000	102.343002
3578.000000	102.340000
3577.000000	102.335818
3576.000000	102.334366
3575.000000	102.337273
3574.000000	102.342094
3573.000000	102.345219
3572.000000	102.345503
3571.000000	102.344889
3570.000000	102.345904
3569.000000	102.348492
3568.000000	102.349565
3567.000000	102.346889
3566.000000	102.341573
3565.000000	102.335451
3564.000000	102.329514
3563.000000	102.324906
3562.000000	102.322917
3561.000000	102.324112
3560.000000	102.327819
3559.000000	102.332636
3558.000000	102.337062
3557.000000	102.340014
3556.000000	102.341277
3555.000000	102.341663
3554.000000	102.342150
3553.000000	102.342696
3552.000000	102.341982
3551.000000	102.338568
3550.000000	102.332200
3549.000000	102.324188
3548.000000	102.316848
3547.000000	102.312729
3546.000000	102.313483
3545.000000	102.318626
3544.000000	102.325314
3543.000000	102.330146
3542.000000	102.331524
3541.000000	102.330285
3540.000000	102.328595
3539.000000	102.328475
3538.000000	102.330823
3537.000000	102.335140
3536.000000	102.340063
3535.000000	102.344390
3534.000000	102.347856
3533.000000	102.350728
3532.000000	102.352914
3531.000000	102.353886
3530.000000	102.353520
3529.000000	102.352603
3528.000000	102.352166
3527.000000	102.352636
3526.000000	102.353973
3525.000000	102.356290
3524.000000	102.359765
3523.000000	102.364003
3522.000000	102.368037
3521.000000	102.371172
3520.000000	102.373574
3519.000000	102.375940
3518.000000	102.378768
3517.000000	102.381989
3516.000000	102.385240
3515.000000	102.388209
3514.000000	102.390853
3513.000000	102.393428
3512.000000	102.396310
3511.000000	102.399619
3510.000000	102.402951
3509.000000	102.405523
3508.000000	102.406705
3507.000000	102.406489
3506.000000	102.405407
3505.000000	102.404162
3504.000000	102.403560
3503.000000	102.404655
3502.000000	102.408272
3501.000000	102.414069
3500.000000	102.420161
3499.000000	102.424229
3498.000000	102.425261
3497.000000	102.424075
3496.000000	102.422488
3495.000000	102.421862
3494.000000	102.422330
3493.000000	102.423163
3492.000000	102.423604
3491.000000	102.423492
3490.000000	102.423381
3489.000000	102.423989
3488.000000	102.425468
3487.000000	102.427344
3486.000000	102.429190
3485.000000	102.431061
3484.000000	102.433179
3483.000000	102.435455
3482.000000	102.437564
3481.000000	102.439273
3480.000000	102.440432
3479.000000	102.440932
3478.000000	102.440980
3477.000000	102.441270
3476.000000	102.442526
3475.000000	102.444902
3474.000000	102.447893
3473.000000	102.450653
3472.000000	102.452171
3471.000000	102.451417
3470.000000	102.447876
3469.000000	102.442266
3468.000000	102.436522
3467.000000	102.432647
3466.000000	102.431452
3465.000000	102.432385
3464.000000	102.434182
3463.000000	102.435630
3462.000000	102.435950
3461.000000	102.434788
3460.000000	102.432256
3459.000000	102.429131
3458.000000	102.426636
3457.000000	102.425637
3456.000000	102.426070
3455.000000	102.427210
3454.000000	102.428555
3453.000000	102.430079
3452.000000	102.431609
3451.000000	102.432455
3450.000000	102.432035
3449.000000	102.430620
3448.000000	102.429164
3447.000000	102.428392
3446.000000	102.428195
3445.000000	102.427909
3444.000000	102.427028
3443.000000	102.425627
3442.000000	102.424292
3441.000000	102.423674
3440.000000	102.423984
3439.000000	102.424838
3438.000000	102.425598
3437.000000	102.425840
3436.000000	102.425529
3435.000000	102.424847
3434.000000	102.423996
3433.000000	102.423130
3432.000000	102.422421
3431.000000	102.422133
3430.000000	102.422528
3429.000000	102.423626
3428.000000	102.425021
3427.000000	102.426066
3426.000000	102.426435
3425.000000	102.426401
3424.000000	102.426441
3423.000000	102.426606
3422.000000	102.426543
3421.000000	102.426100
3420.000000	102.425550
3419.000000	102.425198
3418.000000	102.425096
3417.000000	102.425288
3416.000000	102.425992
3415.000000	102.427269
3414.000000	102.428663
3413.000000	102.429497
3412.000000	102.429495
3411.000000	102.428987
3410.000000	102.428629
3409.000000	102.428999
3408.000000	102.430302
3407.000000	102.432186
3406.000000	102.433859
3405.000000	102.434636
3404.000000	102.434348
3403.000000	102.433187
3402.000000	102.431372
3401.000000	102.429135
3400.000000	102.426985
3399.000000	102.425750
3398.000000	102.426224
3397.000000	102.428709
3396.000000	102.432704
3395.000000	102.436914
3394.000000	102.439940
3393.000000	102.441281
3392.000000	102.441535
3391.000000	102.441615
3390.000000	102.441860
3389.000000	102.442100
3388.000000	102.442318
3387.000000	102.442727
3386.000000	102.443225
3385.000000	102.443227
3384.000000	102.442302
3383.000000	102.440757
3382.000000	102.439380
3381.000000	102.438708
3380.000000	102.438802
3379.000000	102.439572
3378.000000	102.440942
3377.000000	102.442627
3376.000000	102.444121
3375.000000	102.445242
3374.000000	102.446519
3373.000000	102.448630
3372.000000	102.451414
3371.000000	102.453862
3370.000000	102.455281
3369.000000	102.456104
3368.000000	102.457151
3367.000000	102.458429
3366.000000	102.459262
3365.000000	102.459610
3364.000000	102.460560
3363.000000	102.463145
3362.000000	102.467043
3361.000000	102.470715
3360.000000	102.472893
3359.000000	102.473578
3358.000000	102.473595
3357.000000	102.473525
3356.000000	102.473220
3355.000000	102.472391
3354.000000	102.471423
3353.000000	102.471334
3352.000000	102.472850
3351.000000	102.475730
3350.000000	102.478975
3349.000000	102.481705
3348.000000	102.483705
3347.000000	102.485160
3346.000000	102.486276
3345.000000	102.487205
3344.000000	102.488028
3343.000000	102.488641
3342.000000	102.488886
3341.000000	102.488955
3340.000000	102.489445
3339.000000	102.490776
3338.000000	102.492727
3337.000000	102.494654
3336.000000	102.496118
3335.000000	102.497143
3334.000000	102.497965
3333.000000	102.498778
3332.000000	102.499725
3331.000000	102.500901
3330.000000	102.502220
3329.000000	102.503424
3328.000000	102.504382
3327.000000	102.505310
3326.000000	102.506517
3325.000000	102.508019
3324.000000	102.509586
3323.000000	102.511143
3322.000000	102.512899
3321.000000	102.514963
3320.000000	102.516945
3319.000000	102.518209
3318.000000	102.518505
3317.000000	102.518190
3316.000000	102.517974
3315.000000	102.518331
3314.000000	102.519236
3313.000000	102.520355
3312.000000	102.521421
3311.000000	102.522475
3310.000000	102.523746
3309.000000	102.525314
3308.000000	102.526940
3307.000000	102.528306
3306.000000	102.529329
3305.000000	102.530178
3304.000000	102.531013
3303.000000	102.531789
3302.000000	102.532420
3301.000000	102.533024
3300.000000	102.533886
3299.000000	102.535168
3298.000000	102.536780
3297.000000	102.538531
3296.000000	102.540285
3295.000000	102.541868
3294.000000	102.542989
3293.000000	102.543452
3292.000000	102.543435
3291.000000	102.543415
3290.000000	102.543772
3289.000000	102.544545
3288.000000	102.545564
3287.000000	102.546644
3286.000000	102.547637
3285.000000	102.548419
3284.000000	102.548942
3283.000000	102.549299
3282.000000	102.549709
3281.000000	102.550346
3280.000000	102.551193
3279.000000	102.552081
3278.000000	102.552866
3277.000000	102.553564
3276.000000	102.554281
3275.000000	102.555078
3274.000000	102.555931
3273.000000	102.556800
3272.000000	102.557665
3271.000000	102.558494
3270.000000	102.559235
3269.000000	102.559885
3268.000000	102.560499
3267.000000	102.561148
3266.000000	102.561850
3265.000000	102.562585
3264.000000	102.563331
3263.000000	102.564085
3262.000000	102.564847
3261.000000	102.565615
3260.000000	102.566386
3259.000000	102.567163
3258.000000	102.567948
3257.000000	102.568743
3256.000000	102.569545
3255.000000	102.570357
3254.000000	102.571184
3253.000000	102.572031
3252.000000	102.572905
3251.000000	102.573807
3250.000000	102.574735
3249.000000	102.575681
3248.000000	102.576636
3247.000000	102.577590
3246.000000	102.578542
3245.000000	102.579498
3244.000000	102.580460
3243.000000	102.581432
3242.000000	102.582412
3241.000000	102.583402
3240.000000	102.584405
3239.000000	102.585419
3238.000000	102.586440
3237.000000	102.587461
3236.000000	102.588478
3235.000000	102.589486
3234.000000	102.590486
3233.000000	102.591480
3232.000000	102.592474
3231.000000	102.593471
3230.000000	102.594472
3229.000000	102.595477
3228.000000	102.596483
3227.000000	102.597488
3226.000000	102.598494
3225.000000	102.599493
3224.000000	102.600484
3223.000000	102.601485
3222.000000	102.602516
3221.000000	102.603572
3220.000000	102.604623
3219.000000	102.605668
3218.000000	102.606769
3217.000000	102.607992
3216.000000	102.609321
3215.000000	102.610650
3214.000000	102.611869
3213.000000	102.612922
3212.000000	102.613816
3211.000000	102.614632
3210.000000	102.615535
3209.000000	102.616662
3208.000000	102.617933
3207.000000	102.619060
3206.000000	102.619845
3205.000000	102.620428
3204.000000	102.621130
3203.000000	102.622124
3202.000000	102.623386
3201.000000	102.624882
3200.000000	102.626559
3199.000000	102.628127
3198.000000	102.629135
3197.000000	102.629439
3196.000000	102.629503
3195.000000	102.630058
3194.000000	102.631383
3193.000000	102.633107
3192.000000	102.634679
3191.000000	102.635939
3190.000000	102.637170
3189.000000	102.638656
3188.000000	102.640282
3187.000000	102.641651
3186.000000	102.642608
3185.000000	102.643559
3184.000000	102.645133
3183.000000	102.647522
3182.000000	102.650268
3181.000000	102.652668
3180.000000	102.654342
3179.000000	102.655393
3178.000000	102.656204
3177.000000	102.657167
3176.000000	102.658458
3175.000000	102.659960
3174.000000	102.661417
3173.000000	102.662699
3172.000000	102.663874
3171.000000	102.665017
3170.000000	102.666115
3169.000000	102.667232
3168.000000	102.668626
3167.000000	102.670454
3166.000000	102.672410
3165.000000	102.673867
3164.000000	102.674443
3163.000000	102.674320
3162.000000	102.674119
3161.000000	102.674484
3160.000000	102.675705
3159.000000	102.677603
3158.000000	102.679650
3157.000000	102.681452
3156.000000	102.683138
3155.000000	102.685073
3154.000000	102.687205
3153.000000	102.688926
3152.000000	102.689728
3151.000000	102.689797
3150.000000	102.689898
3149.000000	102.690601
3148.000000	102.691796
3147.000000	102.692999
3146.000000	102.694042
3145.000000	102.695284
3144.000000	102.697075
3143.000000	102.699260
3142.000000	102.701344
3141.000000	102.703025
3140.000000	102.704413
3139.000000	102.705777
3138.000000	102.707228
3137.000000	102.708707
3136.000000	102.710158
3135.000000	102.711571
3134.000000	102.712938
3133.000000	102.714243
3132.000000	102.715501
3131.000000	102.716745
3130.000000	102.717986
3129.000000	102.719250
3128.000000	102.720617
3127.000000	102.722150
3126.000000	102.723801
3125.000000	102.725446
3124.000000	102.727025
3123.000000	102.728579
3122.000000	102.730142
3121.000000	102.731697
3120.000000	102.733250
3119.000000	102.734826
3118.000000	102.736354
3117.000000	102.737678
3116.000000	102.738758
3115.000000	102.739751
3114.000000	102.740881
3113.000000	102.742238
3112.000000	102.743763
3111.000000	102.745335
3110.000000	102.746823
3109.000000	102.748123
3108.000000	102.749237
3107.000000	102.750272
3106.000000	102.751375
3105.000000	102.752603
3104.000000	102.753906
3103.000000	102.755178
3102.000000	102.756336
3101.000000	102.757372
3100.000000	102.758354
3099.000000	102.759373
3098.000000	102.760463
3097.000000	102.761575
3096.000000	102.762634
3095.000000	102.763622
3094.000000	102.764596
3093.000000	102.765616
3092.000000	102.766703
3091.000000	102.767867
3090.000000	102.769131
3089.000000	102.770474
3088.000000	102.771808
3087.000000	102.773059
3086.000000	102.774233
3085.000000	102.775374
3084.000000	102.776514
3083.000000	102.777647
3082.000000	102.778763
3081.000000	102.779861
3080.000000	102.780946
3079.000000	102.782019
3078.000000	102.783086
3077.000000	102.784154
3076.000000	102.785233
3075.000000	102.786325
3074.000000	102.787434
3073.000000	102.788558
3072.000000	102.789697
3071.000000	102.790850
3070.000000	102.792018
3069.000000	102.793193
3068.000000	102.794365
3067.000000	102.795528
3066.000000	102.796679
3065.000000	102.797821
3064.000000	102.798979
3063.000000	102.800193
3062.000000	102.801491
3061.000000	102.802847
3060.000000	102.804223
3059.000000	102.805584
3058.000000	102.806894
3057.000000	102.808146
3056.000000	102.809424
3055.000000	102.810843
3054.000000	102.812400
3053.000000	102.813927
3052.000000	102.815293
3051.000000	102.816539
3050.000000	102.817763
3049.000000	102.818965
3048.000000	102.820175
3047.000000	102.821628
3046.000000	102.823584
3045.000000	102.825880
3044.000000	102.827866
3043.000000	102.829016
3042.000000	102.829448
3041.000000	102.829806
3040.000000	102.830606
3039.000000	102.831950
3038.000000	102.833790
3037.000000	102.836133
3036.000000	102.838838
3035.000000	102.841524
3034.000000	102.843901
3033.000000	102.846068
3032.000000	102.848329
3031.000000	102.850821
3030.000000	102.853454
3029.000000	102.856026
3028.000000	102.858224
3027.000000	102.859675
3026.000000	102.860335
3025.000000	102.860896
3024.000000	102.862552
3023.000000	102.866114
3022.000000	102.871285
3021.000000	102.876596
3020.000000	102.880071
3019.000000	102.880531
3018.000000	102.878740
3017.000000	102.877414
3016.000000	102.879365
3015.000000	102.885378
3014.000000	102.893973
3013.000000	102.903235
3012.000000	102.912349
3011.000000	102.920971
3010.000000	102.927771
3009.000000	102.930712
3008.000000	102.929277
3007.000000	102.926022
3006.000000	102.925082
3005.000000	102.928574
3004.000000	102.934685
3003.000000	102.939757
3002.000000	102.942136
3001.000000	102.943394
3000.000000	102.945831
2999.000000	102.949980
2998.000000	102.955120
2997.000000	102.961056
2996.000000	102.967950
2995.000000	102.974802
2994.000000	102.979758
2993.000000	102.982504
2992.000000	102.985276
2991.000000	102.990651
2990.000000	102.998893
2989.000000	103.008079
2988.000000	103.016442
2987.000000	103.023969
2986.000000	103.032012
2985.000000	103.041969
2984.000000	103.054246
2983.000000	103.067930
2982.000000	103.081381
2981.000000	103.093381
2980.000000	103.103734
2979.000000	103.112697
2978.000000	103.120319
2977.000000	103.126677
2976.000000	103.132052
2975.000000	103.135806
2974.000000	103.135381
2973.000000	103.127948
2972.000000	103.113826
2971.000000	103.097609
2970.000000	103.084955
2969.000000	103.077942
2968.000000	103.073947
2967.000000	103.068840
2966.000000	103.060941
2965.000000	103.052009
2964.000000	103.044999
2963.000000	103.041117
2962.000000	103.038934
2961.000000	103.036220
2960.000000	103.032463
2959.000000	103.029337
2958.000000	103.028569
2957.000000	103.029739
2956.000000	103.030609
2955.000000	103.029301
2954.000000	103.025563
2953.000000	103.019976
2952.000000	103.012935
2951.000000	103.005104
2950.000000	102.998419
2949.000000	102.995625
2948.000000	102.998206
2947.000000	103.004759
2946.000000	103.011638
2945.000000	103.015654
2944.000000	103.016584
2943.000000	103.017093
2942.000000	103.019998
2941.000000	103.025565
2940.000000	103.031491
2939.000000	103.035269
2938.000000	103.036209
2937.000000	103.035324
2936.000000	103.034169
2935.000000	103.034250
2934.000000	103.036903
2933.000000	103.042739
2932.000000	103.051073
2931.000000	103.060402
2930.000000	103.069635
2929.000000	103.078629
2928.000000	103.087488
2927.000000	103.095578
2926.000000	103.101423
2925.000000	103.103751
2924.000000	103.102962
2923.000000	103.101778
2922.000000	103.103924
2921.000000	103.111260
2920.000000	103.121931
2919.000000	103.131418
2918.000000	103.135717
2917.000000	103.133730
2916.000000	103.127291
2915.000000	103.119412
2914.000000	103.112165
2913.000000	103.105864
2912.000000	103.100026
2911.000000	103.094865
2910.000000	103.091418
2909.000000	103.090214
2908.000000	103.090567
2907.000000	103.091553
2906.000000	103.093001
2905.000000	103.094861
2904.000000	103.096181
2903.000000	103.095828
2902.000000	103.094190
2901.000000	103.093073
2900.000000	103.094048
2899.000000	103.096978
2898.000000	103.100591
2897.000000	103.103589
2896.000000	103.104983
2895.000000	103.104104
2894.000000	103.100940
2893.000000	103.096399
2892.000000	103.091960
2891.000000	103.088924
2890.000000	103.087767
2889.000000	103.087872
2888.000000	103.087968
2887.000000	103.087240
2886.000000	103.085975
2885.000000	103.084931
2884.000000	103.084328
2883.000000	103.083889
2882.000000	103.083538
2881.000000	103.083428
2880.000000	103.083489
2879.000000	103.083622
2878.000000	103.084146
2877.000000	103.085188
2876.000000	103.085662
2875.000000	103.083843
2874.000000	103.079323
2873.000000	103.073803
2872.000000	103.069563
2871.000000	103.067545
2870.000000	103.067238
2869.000000	103.067622
2868.000000	103.067811
2867.000000	103.067507
2866.000000	103.067485
2865.000000	103.068962
2864.000000	103.071887
2863.000000	103.074545
2862.000000	103.075539
2861.000000	103.075194
2860.000000	103.074282
2859.000000	103.072675
2858.000000	103.070629
2857.000000	103.070199
2856.000000	103.073235
2855.000000	103.078390
2854.000000	103.082162
2853.000000	103.083115
2852.000000	103.083149
2851.000000	103.084298
2850.000000	103.085858
2849.000000	103.085478
2848.000000	103.081672
2847.000000	103.074441
2846.000000	103.064836
2845.000000	103.055037
2844.000000	103.047804
2843.000000	103.044477
2842.000000	103.043750
2841.000000	103.043049
2840.000000	103.040998
2839.000000	103.038176
2838.000000	103.035910
2837.000000	103.035033
2836.000000	103.035464
2835.000000	103.036175
2834.000000	103.035748
2833.000000	103.033754
2832.000000	103.031603
2831.000000	103.031328
2830.000000	103.033392
2829.000000	103.036234
2828.000000	103.038079
2827.000000	103.038632
2826.000000	103.038510
2825.000000	103.037629
2824.000000	103.035211
2823.000000	103.031540
2822.000000	103.028731
2821.000000	103.028779
2820.000000	103.031178
2819.000000	103.033297
2818.000000	103.033308
2817.000000	103.032023
2816.000000	103.031481
2815.000000	103.032534
2814.000000	103.034416
2813.000000	103.035959
2812.000000	103.036517
2811.000000	103.036067
2810.000000	103.035261
2809.000000	103.035228
2808.000000	103.036573
2807.000000	103.038542
2806.000000	103.039692
2805.000000	103.039508
2804.000000	103.038920
2803.000000	103.039193
2802.000000	103.040652
2801.000000	103.042725
2800.000000	103.044781
2799.000000	103.046579
2798.000000	103.048023
2797.000000	103.048947
2796.000000	103.049274
2795.000000	103.049170
2794.000000	103.048973
2793.000000	103.049014
2792.000000	103.049435
2791.000000	103.050144
2790.000000	103.050966
2789.000000	103.051867
2788.000000	103.052939
2787.000000	103.054175
2786.000000	103.055376
2785.000000	103.056357
2784.000000	103.057144
2783.000000	103.057867
2782.000000	103.058521
2781.000000	103.059013
2780.000000	103.059388
2779.000000	103.059846
2778.000000	103.060549
2777.000000	103.061494
2776.000000	103.062555
2775.000000	103.063588
2774.000000	103.064505
2773.000000	103.065300
2772.000000	103.066011
2771.000000	103.066692
2770.000000	103.067392
2769.000000	103.068151
2768.000000	103.068993
2767.000000	103.069898
2766.000000	103.070799
2765.000000	103.071624
2764.000000	103.072353
2763.000000	103.073020
2762.000000	103.073683
2761.000000	103.074362
2760.000000	103.075040
2759.000000	103.075697
2758.000000	103.076337
2757.000000	103.076981
2756.000000	103.077637
2755.000000	103.078304
2754.000000	103.078977
2753.000000	103.079644
2752.000000	103.080292
2751.000000	103.080913
2750.000000	103.081519
2749.000000	103.082123
2748.000000	103.082721
2747.000000	103.083288
2746.000000	103.083801
2745.000000	103.084270
2744.000000	103.084719
2743.000000	103.085170
2742.000000	103.085627
2741.000000	103.086094
2740.000000	103.086563
2739.000000	103.087019
2738.000000	103.087448
2737.000000	103.087841
2736.000000	103.088197
2735.000000	103.088525
2734.000000	103.088832
2733.000000	103.089123
2732.000000	103.089403
2731.000000	103.089678
2730.000000	103.089963
2729.000000	103.090260
2728.000000	103.090566
2727.000000	103.090867
2726.000000	103.091144
2725.000000	103.091375
2724.000000	103.091559
2723.000000	103.091727
2722.000000	103.091924
2721.000000	103.092170
2720.000000	103.092451
2719.000000	103.092749
2718.000000	103.093070
2717.000000	103.093424
2716.000000	103.093774
2715.000000	103.094048
2714.000000	103.094200
2713.000000	103.094262
2712.000000	103.094339
2711.000000	103.094512
2710.000000	103.094780
2709.000000	103.095051
2708.000000	103.095217
2707.000000	103.095256
2706.000000	103.095256
2705.000000	103.095343
2704.000000	103.095552
2703.000000	103.095817
2702.000000	103.096055
2701.000000	103.096273
2700.000000	103.096498
2699.000000	103.096632
2698.000000	103.096479
2697.000000	103.095941
2696.000000	103.095136
2695.000000	103.094381
2694.000000	103.093995
2693.000000	103.094111
2692.000000	103.094618
2691.000000	103.095237
2690.000000	103.095738
2689.000000	103.096060
2688.000000	103.096207
2687.000000	103.096156
2686.000000	103.095938
2685.000000	103.095734
2684.000000	103.095755
2683.000000	103.096003
2682.000000	103.096255
2681.000000	103.096306
2680.000000	103.096158
2679.000000	103.095940
2678.000000	103.095752
2677.000000	103.095635
2676.000000	103.095599
2675.000000	103.095585
2674.000000	103.095440
2673.000000	103.095051
2672.000000	103.094487
2671.000000	103.093974
2670.000000	103.093690
2669.000000	103.093635
2668.000000	103.093682
2667.000000	103.093704
2666.000000	103.093669
2665.000000	103.093607
2664.000000	103.093543
2663.000000	103.093479
2662.000000	103.093417
2661.000000	103.093379
2660.000000	103.093387
2659.000000	103.093419
2658.000000	103.093428
2657.000000	103.093380
2656.000000	103.093299
2655.000000	103.093242
2654.000000	103.093251
2653.000000	103.093308
2652.000000	103.093336
2651.000000	103.093265
2650.000000	103.093090
2649.000000	103.092867
2648.000000	103.092671
2647.000000	103.092532
2646.000000	103.092423
2645.000000	103.092279
2644.000000	103.092049
2643.000000	103.091722
2642.000000	103.091332
2641.000000	103.090968
2640.000000	103.090707
2639.000000	103.090564
2638.000000	103.090497
2637.000000	103.090456
2636.000000	103.090416
2635.000000	103.090339
2634.000000	103.090188
2633.000000	103.089984
2632.000000	103.089793
2631.000000	103.089653
2630.000000	103.089551
2629.000000	103.089460
2628.000000	103.089375
2627.000000	103.089282
2626.000000	103.089139
2625.000000	103.088908
2624.000000	103.088612
2623.000000	103.088324
2622.000000	103.088094
2621.000000	103.087931
2620.000000	103.087818
2619.000000	103.087718
2618.000000	103.087576
2617.000000	103.087368
2616.000000	103.087131
2615.000000	103.086928
2614.000000	103.086767
2613.000000	103.086600
2612.000000	103.086396
2611.000000	103.086187
2610.000000	103.086018
2609.000000	103.085900
2608.000000	103.085811
2607.000000	103.085713
2606.000000	103.085575
2605.000000	103.085395
2604.000000	103.085232
2603.000000	103.085154
2602.000000	103.085165
2601.000000	103.085197
2600.000000	103.085189
2599.000000	103.085140
2598.000000	103.085056
2597.000000	103.084890
2596.000000	103.084586
2595.000000	103.084164
2594.000000	103.083774
2593.000000	103.083609
2592.000000	103.083752
2591.000000	103.084105
2590.000000	103.084404
2589.000000	103.084471
2588.000000	103.084354
2587.000000	103.084219
2586.000000	103.084090
2585.000000	103.083828
2584.000000	103.083388
2583.000000	103.082935
2582.000000	103.082689
2581.000000	103.082709
2580.000000	103.082876
2579.000000	103.083003
2578.000000	103.082975
2577.000000	103.082796
2576.000000	103.082548
2575.000000	103.082311
2574.000000	103.082098
2573.000000	103.081868
2572.000000	103.081605
2571.000000	103.081367
2570.000000	103.081251
2569.000000	103.081302
2568.000000	103.081473
2567.000000	103.081655
2566.000000	103.081740
2565.000000	103.081689
2564.000000	103.081555
2563.000000	103.081455
2562.000000	103.081491
2561.000000	103.081685
2560.000000	103.081982
2559.000000	103.082298
2558.000000	103.082567
2557.000000	103.082749
2556.000000	103.082834
2555.000000	103.082841
2554.000000	103.082817
2553.000000	103.082835
2552.000000	103.082952
2551.000000	103.083170
2550.000000	103.083440
2549.000000	103.083672
2548.000000	103.083807
2547.000000	103.083841
2546.000000	103.083818
2545.000000	103.083800
2544.000000	103.083815
2543.000000	103.083854
2542.000000	103.083899
2541.000000	103.083983
2540.000000	103.084183
2539.000000	103.084534
2538.000000	103.084918
2537.000000	103.085156
2536.000000	103.085211
2535.000000	103.085262
2534.000000	103.085512
2533.000000	103.085944
2532.000000	103.086366
2531.000000	103.086614
2530.000000	103.086613
2529.000000	103.086350
2528.000000	103.085937
2527.000000	103.085676
2526.000000	103.085839
2525.000000	103.086357
2524.000000	103.086894
2523.000000	103.087339
2522.000000	103.088021
2521.000000	103.089240
2520.000000	103.090684
2519.000000	103.091552
2518.000000	103.091273
2517.000000	103.090058
2516.000000	103.088609
2515.000000	103.087466
2514.000000	103.086790
2513.000000	103.086597
2512.000000	103.086866
2511.000000	103.087351
2510.000000	103.087589
2509.000000	103.087349
2508.000000	103.086919
2507.000000	103.086756
2506.000000	103.087077
2505.000000	103.087910
2504.000000	103.089270
2503.000000	103.091053
2502.000000	103.092884
2501.000000	103.094391
2500.000000	103.095584
2499.000000	103.096685
2498.000000	103.097689
2497.000000	103.098355
2496.000000	103.098584
2495.000000	103.098508
2494.000000	103.098250
2493.000000	103.097865
2492.000000	103.097521
2491.000000	103.097483
2490.000000	103.097839
2489.000000	103.098408
2488.000000	103.098976
2487.000000	103.099498
2486.000000	103.100041
2485.000000	103.100655
2484.000000	103.101317
2483.000000	103.101906
2482.000000	103.102252
2481.000000	103.102327
2480.000000	103.102384
2479.000000	103.102777
2478.000000	103.103583
2477.000000	103.104504
2476.000000	103.105125
2475.000000	103.105317
2474.000000	103.105248
2473.000000	103.105214
2472.000000	103.105398
2471.000000	103.105838
2470.000000	103.106503
2469.000000	103.107317
2468.000000	103.108126
2467.000000	103.108756
2466.000000	103.109120
2465.000000	103.109271
2464.000000	103.109373
2463.000000	103.109604
2462.000000	103.110052
2461.000000	103.110689
2460.000000	103.111421
2459.000000	103.112180
2458.000000	103.112965
2457.000000	103.113788
2456.000000	103.114610
2455.000000	103.115358
2454.000000	103.116006
2453.000000	103.116602
2452.000000	103.117188
2451.000000	103.117722
2450.000000	103.118123
2449.000000	103.118406
2448.000000	103.118705
2447.000000	103.119124
2446.000000	103.119629
2445.000000	103.120139
2444.000000	103.120647
2443.000000	103.121183
2442.000000	103.121698
2441.000000	103.122099
2440.000000	103.122411
2439.000000	103.122772
2438.000000	103.123239
2437.000000	103.123681
2436.000000	103.123941
2435.000000	103.124048
2434.000000	103.124201
2433.000000	103.124588
2432.000000	103.125241
2431.000000	103.126023
2430.000000	103.126743
2429.000000	103.127285
2428.000000	103.127686
2427.000000	103.128041
2426.000000	103.128404
2425.000000	103.128771
2424.000000	103.129136
2423.000000	103.129492
2422.000000	103.129836
2421.000000	103.130164
2420.000000	103.130479
2419.000000	103.130782
2418.000000	103.131073
2417.000000	103.131351
2416.000000	103.131614
2415.000000	103.131863
2414.000000	103.132097
2413.000000	103.132318
2412.000000	103.132529
2411.000000	103.132737
2410.000000	103.132951
2409.000000	103.133174
2408.000000	103.133404
2407.000000	103.133632
2406.000000	103.133851
2405.000000	103.134060
2404.000000	103.134267
2403.000000	103.134482
2402.000000	103.134708
2401.000000	103.134945
2400.000000	103.135187
2399.000000	103.135431
2398.000000	103.135673
2397.000000	103.135907
2396.000000	103.136128
2395.000000	103.136333
2394.000000	103.136528
2393.000000	103.136721
2392.000000	103.136918
2391.000000	103.137118
2390.000000	103.137313
2389.000000	103.137495
2388.000000	103.137659
2387.000000	103.137809
2386.000000	103.137961
2385.000000	103.138128
2384.000000	103.138317
2383.000000	103.138521
2382.000000	103.138731
2381.000000	103.138942
2380.000000	103.139155
2379.000000	103.139369
2378.000000	103.139576
2377.000000	103.139771
2376.000000	103.139948
2375.000000	103.140113
2374.000000	103.140271
2373.000000	103.140427
2372.000000	103.140586
2371.000000	103.140749
2370.000000	103.140916
2369.000000	103.141080
2368.000000	103.141233
2367.000000	103.141368
2366.000000	103.141483
2365.000000	103.141583
2364.000000	103.141675
2363.000000	103.141761
2362.000000	103.141842
2361.000000	103.141913
2360.000000	103.141968
2359.000000	103.142004
2358.000000	103.142027
2357.000000	103.142046
2356.000000	103.142067
2355.000000	103.142091
2354.000000	103.142116
2353.000000	103.142134
2352.000000	103.142144
2351.000000	103.142144
2350.000000	103.142130
2349.000000	103.142095
2348.000000	103.142029
2347.000000	103.141928
2346.000000	103.141817
2345.000000	103.141762
2344.000000	103.141803
2343.000000	103.141851
2342.000000	103.141755
2341.000000	103.141461
2340.000000	103.141067
2339.000000	103.140666
2338.000000	103.140219
2337.000000	103.139638
2336.000000	103.138946
2335.000000	103.138297
2334.000000	103.137828
2333.000000	103.137500
2332.000000	103.137161
2331.000000	103.136712
2330.000000	103.136237
2329.000000	103.135823
2328.000000	103.135427
2327.000000	103.134912
2326.000000	103.134285
2325.000000	103.133683
2324.000000	103.133144
2323.000000	103.132513
2322.000000	103.131723
2321.000000	103.131030
2320.000000	103.130750
2319.000000	103.130821
2318.000000	103.130861
2317.000000	103.130563
2316.000000	103.129905
2315.000000	103.128897
2314.000000	103.127594
2313.000000	103.126254
2312.000000	103.125329
2311.000000	103.124897
2310.000000	103.124558
2309.000000	103.123820
2308.000000	103.122627
2307.000000	103.121228
2306.000000	103.119885
2305.000000	103.118708
2304.000000	103.117737
2303.000000	103.116906
2302.000000	103.116111
2301.000000	103.115318
2300.000000	103.114640
2299.000000	103.114106
2298.000000	103.113644
2297.000000	103.113279
2296.000000	103.113193
2295.000000	103.113337
2294.000000	103.113264
2293.000000	103.112513
2292.000000	103.111142
2291.000000	103.109701
2290.000000	103.108723
2289.000000	103.108405
2288.000000	103.108692
2287.000000	103.109328
2286.000000	103.109791
2285.000000	103.109523
2284.000000	103.108396
2283.000000	103.106867
2282.000000	103.105496
2281.000000	103.104399
2280.000000	103.103325
2279.000000	103.102114
2278.000000	103.100851
2277.000000	103.099604
2276.000000	103.098243
2275.000000	103.096663
2274.000000	103.095111
2273.000000	103.094129
2272.000000	103.094124
2271.000000	103.094983
2270.000000	103.096073
2269.000000	103.096628
2268.000000	103.096301
2267.000000	103.095308
2266.000000	103.094159
2265.000000	103.093226
2264.000000	103.092531
2263.000000	103.091934
2262.000000	103.091357
2261.000000	103.090751
2260.000000	103.089988
2259.000000	103.088974
2258.000000	103.087875
2257.000000	103.087031
2256.000000	103.086568
2255.000000	103.086196
2254.000000	103.085504
2253.000000	103.084401
2252.000000	103.083168
2251.000000	103.082134
2250.000000	103.081449
2249.000000	103.081097
2248.000000	103.080980
2247.000000	103.080882
2246.000000	103.080563
2245.000000	103.079963
2244.000000	103.079242
2243.000000	103.078630
2242.000000	103.078281
2241.000000	103.078199
2240.000000	103.078208
2239.000000	103.078055
2238.000000	103.077659
2237.000000	103.077208
2236.000000	103.076883
2235.000000	103.076588
2234.000000	103.076134
2233.000000	103.075629
2232.000000	103.075371
2231.000000	103.075358
2230.000000	103.075201
2229.000000	103.074637
2228.000000	103.073888
2227.000000	103.073366
2226.000000	103.073171
2225.000000	103.073113
2224.000000	103.073058
2223.000000	103.073000
2222.000000	103.072848
2221.000000	103.072482
2220.000000	103.072027
2219.000000	103.071816
2218.000000	103.072013
2217.000000	103.072470
2216.000000	103.072938
2215.000000	103.073275
2214.000000	103.073402
2213.000000	103.073214
2212.000000	103.072646
2211.000000	103.071736
2210.000000	103.070645
2209.000000	103.069686
2208.000000	103.069204
2207.000000	103.069302
2206.000000	103.069714
2205.000000	103.070051
2204.000000	103.070204
2203.000000	103.070332
2202.000000	103.070510
2201.000000	103.070586
2200.000000	103.070387
2199.000000	103.069916
2198.000000	103.069348
2197.000000	103.068927
2196.000000	103.068873
2195.000000	103.069258
2194.000000	103.069912
2193.000000	103.070547
2192.000000	103.071011
2191.000000	103.071321
2190.000000	103.071460
2189.000000	103.071326
2188.000000	103.070943
2187.000000	103.070592
2186.000000	103.070557
2185.000000	103.070836
2184.000000	103.071218
2183.000000	103.071585
2182.000000	103.071977
2181.000000	103.072386
2180.000000	103.072678
2179.000000	103.072782
2178.000000	103.072861
2177.000000	103.073180
2176.000000	103.073838
2175.000000	103.074661
2174.000000	103.075315
2173.000000	103.075587
2172.000000	103.075518
2171.000000	103.075360
2170.000000	103.075385
2169.000000	103.075664
2168.000000	103.076045
2167.000000	103.076339
2166.000000	103.076547
2165.000000	103.076864
2164.000000	103.077441
2163.000000	103.078199
2162.000000	103.078918
2161.000000	103.079490
2160.000000	103.079975
2159.000000	103.080404
2158.000000	103.080672
2157.000000	103.080716
2156.000000	103.080672
2155.000000	103.080749
2154.000000	103.080977
2153.000000	103.081186
2152.000000	103.081191
2151.000000	103.080968
2150.000000	103.080700
2149.000000	103.080696
2148.000000	103.081147
2147.000000	103.081930
2146.000000	103.082687
2145.000000	103.083229
2144.000000	103.083711
2143.000000	103.084305
2142.000000	103.084835
2141.000000	103.084953
2140.000000	103.084649
2139.000000	103.084407
2138.000000	103.084709
2137.000000	103.085577
2136.000000	103.086639
2135.000000	103.087519
2134.000000	103.088053
2133.000000	103.088249
2132.000000	103.088232
2131.000000	103.088219
2130.000000	103.088427
2129.000000	103.088955
2128.000000	103.089789
2127.000000	103.090877
2126.000000	103.092145
2125.000000	103.093502
2124.000000	103.094859
2123.000000	103.096099
2122.000000	103.096995
2121.000000	103.097263
2120.000000	103.096776
2119.000000	103.095765
2118.000000	103.094819
2117.000000	103.094565
2116.000000	103.095284
2115.000000	103.096789
2114.000000	103.098600
2113.000000	103.100356
2112.000000	103.101987
2111.000000	103.103437
2110.000000	103.104412
2109.000000	103.104629
2108.000000	103.104291
2107.000000	103.104071
2106.000000	103.104419
2105.000000	103.105041
2104.000000	103.105244
2103.000000	103.104861
2102.000000	103.104650
2101.000000	103.105601
2100.000000	103.107934
2099.000000	103.110796
2098.000000	103.112969
2097.000000	103.113966
2096.000000	103.114303
2095.000000	103.114785
2094.000000	103.115735
2093.000000	103.117055
2092.000000	103.118737
2091.000000	103.120837
2090.000000	103.123024
2089.000000	103.124691
2088.000000	103.125679
2087.000000	103.126458
2086.000000	103.127376
2085.000000	103.128125
2084.000000	103.128311
2083.000000	103.128226
2082.000000	103.128525
2081.000000	103.129227
2080.000000	103.129523
2079.000000	103.128779
2078.000000	103.127468
2077.000000	103.126862
2076.000000	103.127723
2075.000000	103.129586
2074.000000	103.131422
2073.000000	103.132779
2072.000000	103.133928
2071.000000	103.135011
2070.000000	103.135651
2069.000000	103.135648
2068.000000	103.135545
2067.000000	103.136000
2066.000000	103.136814
2065.000000	103.137072
2064.000000	103.136263
2063.000000	103.134850
2062.000000	103.133683
2061.000000	103.133128
2060.000000	103.132935
2059.000000	103.132690
2058.000000	103.132178
2057.000000	103.131449
2056.000000	103.130717
2055.000000	103.130265
2054.000000	103.130278
2053.000000	103.130582
2052.000000	103.130555
2051.000000	103.129597
2050.000000	103.127825
2049.000000	103.126117
2048.000000	103.125243
2047.000000	103.125045
2046.000000	103.124673
2045.000000	103.123536
2044.000000	103.121847
2043.000000	103.120305
2042.000000	103.119435
2041.000000	103.119207
2040.000000	103.119104
2039.000000	103.118488
2038.000000	103.117112
2037.000000	103.115291
2036.000000	103.113624
2035.000000	103.112425
2034.000000	103.111519
2033.000000	103.110558
2032.000000	103.109378
2031.000000	103.108029
2030.000000	103.106598
2029.000000	103.105164
2028.000000	103.103843
2027.000000	103.102723
2026.000000	103.101733
2025.000000	103.100677
2024.000000	103.099437
2023.000000	103.098085
2022.000000	103.096750
2021.000000	103.095429
2020.000000	103.093998
2019.000000	103.092422
2018.000000	103.090870
2017.000000	103.089557
2016.000000	103.088468
2015.000000	103.087346
2014.000000	103.085998
2013.000000	103.084536
2012.000000	103.083234
2011.000000	103.082190
2010.000000	103.081224
2009.000000	103.080182
2008.000000	103.079190
2007.000000	103.078403
2006.000000	103.077608
2005.000000	103.076396
2004.000000	103.074799
2003.000000	103.073423
2002.000000	103.072688
2001.000000	103.072258
2000.000000	103.071526
1999.000000	103.070451
1998.000000	103.069524
1997.000000	103.068988
1996.000000	103.068479
1995.000000	103.067539
1994.000000	103.066273
1993.000000	103.065316
1992.000000	103.065190
1991.000000	103.065764
1990.000000	103.066373
1989.000000	103.066435
1988.000000	103.065901
1987.000000	103.065250
1986.000000	103.065044
1985.000000	103.065379
1984.000000	103.065805
1983.000000	103.065815
1982.000000	103.065288
1981.000000	103.064403
1980.000000	103.063324
1979.000000	103.062281
1978.000000	103.061851
1977.000000	103.062638
1976.000000	103.064436
1975.000000	103.066047
1974.000000	103.066395
1973.000000	103.065613
1972.000000	103.064722
1971.000000	103.064446
1970.000000	103.064713
1969.000000	103.065190
1968.000000	103.065803
1967.000000	103.066654
1966.000000	103.067699
1965.000000	103.068601
1964.000000	103.068849
1963.000000	103.068064
1962.000000	103.066421
1961.000000	103.064806
1960.000000	103.064100
1959.000000	103.064349
1958.000000	103.064931
1957.000000	103.065368
1956.000000	103.065621
1955.000000	103.065694
1954.000000	103.065557
1953.000000	103.065541
1952.000000	103.066254
1951.000000	103.067763
1950.000000	103.069007
1949.000000	103.068565
1948.000000	103.065981
1947.000000	103.061933
1946.000000	103.057414
1945.000000	103.053168
1944.000000	103.049841
1943.000000	103.048079
1942.000000	103.048006
1941.000000	103.048926
1940.000000	103.050010
1939.000000	103.051017
1938.000000	103.051955
1937.000000	103.052530
1936.000000	103.052247
1935.000000	103.050882
1934.000000	103.048620
1933.000000	103.045697
1932.000000	103.042322
1931.000000	103.039019
1930.000000	103.036493
1929.000000	103.035133
1928.000000	103.034728
1927.000000	103.034466
1926.000000	103.033365
1925.000000	103.031046
1924.000000	103.028426
1923.000000	103.027426
1922.000000	103.029046
1921.000000	103.031937
1920.000000	103.033447
1919.000000	103.031575
1918.000000	103.026372
1917.000000	103.020041
1916.000000	103.014659
1915.000000	103.010309
1914.000000	103.006274
1913.000000	103.002840
1912.000000	103.000962
1911.000000	103.000203
1910.000000	102.998158
1909.000000	102.993129
1908.000000	102.986399
1907.000000	102.980564
1906.000000	102.976618
1905.000000	102.973866
1904.000000	102.971808
1903.000000	102.970314
1902.000000	102.968129
1901.000000	102.963524
1900.000000	102.956579
1899.000000	102.949376
1898.000000	102.943951
1897.000000	102.940832
1896.000000	102.939615
1895.000000	102.939547
1894.000000	102.939122
1893.000000	102.936864
1892.000000	102.932918
1891.000000	102.928701
1890.000000	102.925383
1889.000000	102.923322
1888.000000	102.922354
1887.000000	102.921851
1886.000000	102.920823
1885.000000	102.918708
1884.000000	102.916205
1883.000000	102.914116
1882.000000	102.911582
1881.000000	102.907580
1880.000000	102.903564
1879.000000	102.902416
1878.000000	102.904820
1877.000000	102.907937
1876.000000	102.908292
1875.000000	102.905329
1874.000000	102.901346
1873.000000	102.898914
1872.000000	102.899204
1871.000000	102.901743
1870.000000	102.904571
1869.000000	102.905745
1868.000000	102.905883
1867.000000	102.906737
1866.000000	102.908110
1865.000000	102.909196
1864.000000	102.910527
1863.000000	102.913258
1862.000000	102.917250
1861.000000	102.920796
1860.000000	102.922599
1859.000000	102.923165
1858.000000	102.923966
1857.000000	102.926444
1856.000000	102.931659
1855.000000	102.939314
1854.000000	102.947563
1853.000000	102.955047
1852.000000	102.962355
1851.000000	102.970027
1850.000000	102.976563
1849.000000	102.980200
1848.000000	102.981881
1847.000000	102.984641
1846.000000	102.990026
1845.000000	102.996170
1844.000000	102.999899
1843.000000	103.000224
1842.000000	102.998170
1841.000000	102.995750
1840.000000	102.995022
1839.000000	102.996779
1838.000000	102.999751
1837.000000	103.001566
1836.000000	103.001363
1835.000000	103.000753
1834.000000	103.001838
1833.000000	103.004970
1832.000000	103.008127
1831.000000	103.008397
1830.000000	103.005256
1829.000000	103.001705
1828.000000	103.000385
1827.000000	103.001676
1826.000000	103.004528
1825.000000	103.006910
1824.000000	103.007401
1823.000000	103.006614
1822.000000	103.006023
1821.000000	103.005808
1820.000000	103.004873
1819.000000	103.002955
1818.000000	103.001009
1817.000000	102.999303
1816.000000	102.997045
1815.000000	102.994039
1814.000000	102.991376
1813.000000	102.990485
1812.000000	102.992045
1811.000000	102.995658
1810.000000	102.999117
1809.000000	102.999466
1808.000000	102.996850
1807.000000	102.994391
1806.000000	102.993747
1805.000000	102.993618
1804.000000	102.992985
1803.000000	102.993430
1802.000000	102.996933
1801.000000	103.002424
1800.000000	103.006273
1799.000000	103.006583
1798.000000	103.004246
1797.000000	103.001223
1796.000000	102.999746
1795.000000	103.001433
1794.000000	103.005919
1793.000000	103.010454
1792.000000	103.013101
1791.000000	103.015727
1790.000000	103.019182
1789.000000	103.021604
1788.000000	103.022332
1787.000000	103.022747
1786.000000	103.024098
1785.000000	103.026110
1784.000000	103.028211
1783.000000	103.030463
1782.000000	103.032996
1781.000000	103.035679
1780.000000	103.038413
1779.000000	103.041554
1778.000000	103.045433
1777.000000	103.049813
1776.000000	103.053709
1775.000000	103.056288
1774.000000	103.058358
1773.000000	103.061660
1772.000000	103.066143
1771.000000	103.070501
1770.000000	103.074571
1769.000000	103.079724
1768.000000	103.086931
1767.000000	103.095174
1766.000000	103.102675
1765.000000	103.109081
1764.000000	103.114751
1763.000000	103.118700
1762.000000	103.119512
1761.000000	103.117955
1760.000000	103.116579
1759.000000	103.118114
1758.000000	103.123533
1757.000000	103.130940
1756.000000	103.136213
1755.000000	103.136847
1754.000000	103.134915
1753.000000	103.134345
1752.000000	103.136259
1751.000000	103.137788
1750.000000	103.136987
1749.000000	103.135459
1748.000000	103.134351
1747.000000	103.132474
1746.000000	103.129490
1745.000000	103.127218
1744.000000	103.126781
1743.000000	103.127062
1742.000000	103.126224
1741.000000	103.123423
1740.000000	103.119551
1739.000000	103.117204
1738.000000	103.117886
1737.000000	103.120047
1736.000000	103.121923
1735.000000	103.122310
1734.000000	103.120296
1733.000000	103.118466
1732.000000	103.118315
1731.000000	103.118191
1730.000000	103.116550
1729.000000	103.113795
1728.000000	103.111201
1727.000000	103.109632
1726.000000	103.109515
1725.000000	103.110499
1724.000000	103.111261
1723.000000	103.110720
1722.000000	103.108878
1721.000000	103.106180
1720.000000	103.103071
1719.000000	103.100424
1718.000000	103.099277
1717.000000	103.098386
1716.000000	103.095870
1715.000000	103.092153
1714.000000	103.088084
1713.000000	103.084137
1712.000000	103.080857
1711.000000	103.078310
1710.000000	103.076011
1709.000000	103.073524
1708.000000	103.070948
1707.000000	103.068712
1706.000000	103.066843
1705.000000	103.064815
1704.000000	103.062376
1703.000000	103.059848
1702.000000	103.057367
1701.000000	103.053983
1700.000000	103.049019
1699.000000	103.044826
1698.000000	103.042472
1697.000000	103.040666
1696.000000	103.038058
1695.000000	103.034863
1694.000000	103.031977
1693.000000	103.029457
1692.000000	103.026969
1691.000000	103.024335
1690.000000	103.021361
1689.000000	103.017708
1688.000000	103.013261
1687.000000	103.008517
1686.000000	103.004195
1685.000000	102.999319
1684.000000	102.992721
1683.000000	102.987548
1682.000000	102.984337
1681.000000	102.981992
1680.000000	102.980210
1679.000000	102.978936
1678.000000	102.977931
1677.000000	102.977142
1676.000000	102.976091
1675.000000	102.973426
1674.000000	102.969262
1673.000000	102.965386
1672.000000	102.962785
1671.000000	102.960861
1670.000000	102.958025
1669.000000	102.954747
1668.000000	102.952934
1667.000000	102.951770
1666.000000	102.949594
1665.000000	102.945964
1664.000000	102.941730
1663.000000	102.938088
1662.000000	102.935458
1661.000000	102.933605
1660.000000	102.931967
1659.000000	102.928966
1658.000000	102.922864
1657.000000	102.913676
1656.000000	102.904208
1655.000000	102.898274
1654.000000	102.896792
1653.000000	102.895842
1652.000000	102.898257
1651.000000	102.903096
1650.000000	102.907515
1649.000000	102.906888
1648.000000	102.902788
1647.000000	102.901199
1646.000000	102.904159
1645.000000	102.905365
1644.000000	102.902387
1643.000000	102.899237
1642.000000	102.898326
1641.000000	102.898716
1640.000000	102.898804
1639.000000	102.898368
1638.000000	102.898124
1637.000000	102.897992
1636.000000	102.897068
1635.000000	102.895938
1634.000000	102.896827
1633.000000	102.900094
1632.000000	102.905029
1631.000000	102.909739
1630.000000	102.911931
1629.000000	102.911307
1628.000000	102.911516
1627.000000	102.915714
1626.000000	102.922219
1625.000000	102.927751
1624.000000	102.931317
1623.000000	102.933999
1622.000000	102.937004
1621.000000	102.940885
1620.000000	102.945315
1619.000000	102.949194
1618.000000	102.951091
1617.000000	102.951213
1616.000000	102.954757
1615.000000	102.963818
1614.000000	102.973581
1613.000000	102.981295
1612.000000	102.988490
1611.000000	102.996444
1610.000000	103.003386
1609.000000	103.008722
1608.000000	103.014817
1607.000000	103.022397
1606.000000	103.029570
1605.000000	103.036179
1604.000000	103.043877
1603.000000	103.052292
1602.000000	103.059138
1601.000000	103.063983
1600.000000	103.068596
1599.000000	103.073526
1598.000000	103.077623
1597.000000	103.080474
1596.000000	103.083145
1595.000000	103.086329
1594.000000	103.089414
1593.000000	103.092411
1592.000000	103.096429
1591.000000	103.101483
1590.000000	103.105917
1589.000000	103.108881
1588.000000	103.111097
1587.000000	103.112835
1586.000000	103.113706
1585.000000	103.114944
1584.000000	103.118852
1583.000000	103.125026
1582.000000	103.130156
1581.000000	103.132052
1580.000000	103.130797
1579.000000	103.126505
1578.000000	103.119744
1577.000000	103.114298
1576.000000	103.115478
1575.000000	103.122319
1574.000000	103.127982
1573.000000	103.129297
1572.000000	103.127431
1571.000000	103.125210
1570.000000	103.124858
1569.000000	103.128359
1568.000000	103.134616
1567.000000	103.138977
1566.000000	103.139496
1565.000000	103.137887
1564.000000	103.136477
1563.000000	103.134942
1562.000000	103.132518
1561.000000	103.132195
1560.000000	103.135314
1559.000000	103.132213
1558.000000	103.122273
1557.000000	103.115381
1556.000000	103.112396
1555.000000	103.109959
1554.000000	103.106353
1553.000000	103.103317
1552.000000	103.102643
1551.000000	103.103453
1550.000000	103.102974
1549.000000	103.099737
1548.000000	103.094856
1547.000000	103.090419
1546.000000	103.086902
1545.000000	103.083097
1544.000000	103.079251
1543.000000	103.077546
1542.000000	103.078476
1541.000000	103.077202
1540.000000	103.068217
1539.000000	103.055174
1538.000000	103.043543
1537.000000	103.034432
1536.000000	103.026876
1535.000000	103.020202
1534.000000	103.013544
1533.000000	103.005876
1532.000000	102.998022
1531.000000	102.991583
1530.000000	102.986693
1529.000000	102.980743
1528.000000	102.970865
1527.000000	102.958273
1526.000000	102.948249
1525.000000	102.943846
1524.000000	102.943338
1523.000000	102.943295
1522.000000	102.940554
1521.000000	102.934393
1520.000000	102.927984
1519.000000	102.922829
1518.000000	102.917670
1517.000000	102.911167
1516.000000	102.904292
1515.000000	102.898433
1514.000000	102.893589
1513.000000	102.888909
1512.000000	102.883203
1511.000000	102.877234
1510.000000	102.873165
1509.000000	102.871854
1508.000000	102.872279
1507.000000	102.874516
1506.000000	102.878075
1505.000000	102.877312
1504.000000	102.872506
1503.000000	102.867089
1502.000000	102.862157
1501.000000	102.858552
1500.000000	102.856377
1499.000000	102.855023
1498.000000	102.854048
1497.000000	102.851897
1496.000000	102.847425
1495.000000	102.843784
1494.000000	102.843767
1493.000000	102.845706
1492.000000	102.845783
1491.000000	102.841518
1490.000000	102.834667
1489.000000	102.829436
1488.000000	102.827869
1487.000000	102.830342
1486.000000	102.834645
1485.000000	102.837165
1484.000000	102.836548
1483.000000	102.834019
1482.000000	102.831876
1481.000000	102.831511
1480.000000	102.833173
1479.000000	102.836884
1478.000000	102.841825
1477.000000	102.845487
1476.000000	102.846276
1475.000000	102.846668
1474.000000	102.849747
1473.000000	102.854352
1472.000000	102.856499
1471.000000	102.856057
1470.000000	102.855410
1469.000000	102.855413
1468.000000	102.855213
1467.000000	102.854483
1466.000000	102.853645
1465.000000	102.852129
1464.000000	102.849003
1463.000000	102.845045
1462.000000	102.842343
1461.000000	102.841473
1460.000000	102.841050
1459.000000	102.839937
1458.000000	102.840285
1457.000000	102.844925
1456.000000	102.850088
1455.000000	102.850783
1454.000000	102.849533
1453.000000	102.849435
1452.000000	102.850811
1451.000000	102.852049
1450.000000	102.851655
1449.000000	102.849248
1448.000000	102.845769
1447.000000	102.843457
1446.000000	102.842865
1445.000000	102.841566
1444.000000	102.837401
1443.000000	102.831121
1442.000000	102.825626
1441.000000	102.822754
1440.000000	102.821983
1439.000000	102.822804
1438.000000	102.826290
1437.000000	102.831056
1436.000000	102.832104
1435.000000	102.828550
1434.000000	102.825712
1433.000000	102.827015
1432.000000	102.831094
1431.000000	102.834497
1430.000000	102.837021
1429.000000	102.841452
1428.000000	102.847829
1427.000000	102.853796
1426.000000	102.858960
1425.000000	102.865492
1424.000000	102.873567
1423.000000	102.879513
1422.000000	102.881300
1421.000000	102.880917
1420.000000	102.880314
1419.000000	102.880295
1418.000000	102.884898
1417.000000	102.894613
1416.000000	102.904365
1415.000000	102.910961
1414.000000	102.915155
1413.000000	102.919510
1412.000000	102.925301
1411.000000	102.932279
1410.000000	102.941067
1409.000000	102.952089
1408.000000	102.963056
1407.000000	102.970710
1406.000000	102.974552
1405.000000	102.978264
1404.000000	102.985129
1403.000000	102.994412
1402.000000	103.004363
1401.000000	103.013755
1400.000000	103.020589
1399.000000	103.023513
1398.000000	103.025734
1397.000000	103.031892
1396.000000	103.041856
1395.000000	103.050635
1394.000000	103.055060
1393.000000	103.058027
1392.000000	103.063008
1391.000000	103.070644
1390.000000	103.080007
1389.000000	103.090210
1388.000000	103.100420
1387.000000	103.109889
1386.000000	103.118652
1385.000000	103.127090
1384.000000	103.134312
1383.000000	103.138139
1382.000000	103.137954
1381.000000	103.136235
1380.000000	103.135813
1379.000000	103.136390
1378.000000	103.135746
1377.000000	103.133607
1376.000000	103.131930
1375.000000	103.131939
1374.000000	103.132887
1373.000000	103.133217
1372.000000	103.131477
1371.000000	103.127612
1370.000000	103.123259
1369.000000	103.121394
1368.000000	103.123634
1367.000000	103.128114
1366.000000	103.132112
1365.000000	103.135102
1364.000000	103.137771
1363.000000	103.139917
1362.000000	103.140339
1361.000000	103.138840
1360.000000	103.136842
1359.000000	103.135405
1358.000000	103.134205
1357.000000	103.133283
1356.000000	103.133722
1355.000000	103.135788
1354.000000	103.137661
1353.000000	103.137044
1352.000000	103.133793
1351.000000	103.130194
1350.000000	103.128302
1349.000000	103.128714
1348.000000	103.130502
1347.000000	103.132196
1346.000000	103.133330
1345.000000	103.134698
1344.000000	103.136487
1343.000000	103.137140
1342.000000	103.135168
1341.000000	103.131749
1340.000000	103.130114
1339.000000	103.131382
1338.000000	103.132842
1337.000000	103.131784
1336.000000	103.128721
1335.000000	103.126190
1334.000000	103.126216
1333.000000	103.129176
1332.000000	103.133716
1331.000000	103.137442
1330.000000	103.138958
1329.000000	103.139629
1328.000000	103.141865
1327.000000	103.145321
1326.000000	103.146469
1325.000000	103.143059
1324.000000	103.136986
1323.000000	103.132365
1322.000000	103.131636
1321.000000	103.133815
1320.000000	103.135765
1319.000000	103.134975
1318.000000	103.131893
1317.000000	103.129420
1316.000000	103.129685
1315.000000	103.132006
1314.000000	103.134489
1313.000000	103.136517
1312.000000	103.138343
1311.000000	103.139158
1310.000000	103.137788
1309.000000	103.135186
1308.000000	103.134113
1307.000000	103.135721
1306.000000	103.138108
1305.000000	103.139494
1304.000000	103.140401
1303.000000	103.141430
1302.000000	103.140747
1301.000000	103.136121
1300.000000	103.128910
1299.000000	103.124078
1298.000000	103.125625
1297.000000	103.132749
1296.000000	103.140659
1295.000000	103.144512
1294.000000	103.142792
1293.000000	103.137670
1292.000000	103.132618
1291.000000	103.129524
1290.000000	103.128039
1289.000000	103.127189
1288.000000	103.126493
1287.000000	103.125094
1286.000000	103.121316
1285.000000	103.114463
1284.000000	103.106384
1283.000000	103.099972
1282.000000	103.096378
1281.000000	103.094780
1280.000000	103.094583
1279.000000	103.096287
1278.000000	103.100408
1277.000000	103.106527
1276.000000	103.113205
1275.000000	103.118023
1274.000000	103.118757
1273.000000	103.115992
1272.000000	103.113742
1271.000000	103.115493
1270.000000	103.119852
1269.000000	103.122173
1268.000000	103.120247
1267.000000	103.116308
1266.000000	103.113593
1265.000000	103.112810
1264.000000	103.112393
1263.000000	103.110236
1262.000000	103.104471
1261.000000	103.094613
1260.000000	103.083354
1259.000000	103.075392
1258.000000	103.072943
1257.000000	103.073047
1256.000000	103.070446
1255.000000	103.062591
1254.000000	103.051263
1253.000000	103.039906
1252.000000	103.030137
1251.000000	103.020446
1250.000000	103.007531
1249.000000	102.989223
1248.000000	102.966842
1247.000000	102.944697
1246.000000	102.926904
1245.000000	102.914260
1244.000000	102.904003
1243.000000	102.892208
1242.000000	102.876449
1241.000000	102.856815
1240.000000	102.835001
1239.000000	102.812630
1238.000000	102.790433
1237.000000	102.768864
1236.000000	102.748763
1235.000000	102.730528
1234.000000	102.712869
1233.000000	102.693183
1232.000000	102.669149
1231.000000	102.639642
1230.000000	102.604794
1229.000000	102.565945
1228.000000	102.524955
1227.000000	102.482357
1226.000000	102.436193
1225.000000	102.383691
1224.000000	102.323908
1223.000000	102.257796
1222.000000	102.186153
1221.000000	102.108903
1220.000000	102.026252
1219.000000	101.939049
1218.000000	101.847915
1217.000000	101.753259
1216.000000	101.655867
1215.000000	101.556008
1214.000000	101.452515
1213.000000	101.344645
1212.000000	101.234273
1211.000000	101.124122
1210.000000	101.014562
1209.000000	100.904663
1208.000000	100.794965
1207.000000	100.685836
1206.000000	100.574927
1205.000000	100.460988
1204.000000	100.348575
1203.000000	100.243500
1202.000000	100.144645
1201.000000	100.046014
1200.000000	99.945928
1199.000000	99.847321
1198.000000	99.749313
1197.000000	99.646577
1196.000000	99.538571
1195.000000	99.431765
1194.000000	99.329977
1193.000000	99.229064
1192.000000	99.124092
1191.000000	99.015722
1190.000000	98.906488
1189.000000	98.796308
1188.000000	98.684787
1187.000000	98.573021
1186.000000	98.460430
1185.000000	98.344525
1184.000000	98.225803
1183.000000	98.107514
1182.000000	97.988652
1181.000000	97.863101
1180.000000	97.728004
1179.000000	97.586953
1178.000000	97.442682
1177.000000	97.293385
1176.000000	97.139210
1175.000000	96.985202
1174.000000	96.833442
1173.000000	96.678714
1172.000000	96.516728
1171.000000	96.351222
1170.000000	96.188778
1169.000000	96.031739
1168.000000	95.880136
1167.000000	95.736237
1166.000000	95.605163
1165.000000	95.496514
1164.000000	95.426311
1163.000000	95.409021
1162.000000	95.443528
1161.000000	95.511590
1160.000000	95.590479
1159.000000	95.660523
1158.000000	95.702310
1157.000000	95.699447
1156.000000	95.649478
1155.000000	95.565365
1154.000000	95.462292
1153.000000	95.347597
1152.000000	95.225023
1151.000000	95.100289
1150.000000	94.977446
1149.000000	94.855860
1148.000000	94.734832
1147.000000	94.615785
1146.000000	94.497647
1145.000000	94.376759
1144.000000	94.253751
1143.000000	94.133576
1142.000000	94.016682
1141.000000	93.897594
1140.000000	93.774168
1139.000000	93.650237
1138.000000	93.527296
1137.000000	93.402138
1136.000000	93.274793
1135.000000	93.149597
1134.000000	93.025839
1133.000000	92.896830
1132.000000	92.761121
1131.000000	92.625349
1130.000000	92.493118
1129.000000	92.360507
1128.000000	92.225258
1127.000000	92.090215
1126.000000	91.954763
1125.000000	91.813624
1124.000000	91.667867
1123.000000	91.526463
1122.000000	91.392757
1121.000000	91.259553
1120.000000	91.121443
1119.000000	90.981406
1118.000000	90.841613
1117.000000	90.699196
1116.000000	90.555011
1115.000000	90.415112
1114.000000	90.279823
1113.000000	90.143307
1112.000000	90.007192
1111.000000	89.881034
1110.000000	89.766034
1109.000000	89.652394
1108.000000	89.535857
1107.000000	89.422891
1106.000000	89.315718
1105.000000	89.206793
1104.000000	89.092498
1103.000000	88.978463
1102.000000	88.867441
1101.000000	88.756215
1100.000000	88.647393
1099.000000	88.550061
1098.000000	88.462868
1097.000000	88.372073
1096.000000	88.270618
1095.000000	88.165535
1094.000000	88.063240
1093.000000	87.962309
1092.000000	87.864214
1091.000000	87.775770
1090.000000	87.696539
1089.000000	87.618019
1088.000000	87.538530
1087.000000	87.464785
1086.000000	87.397102
1085.000000	87.328624
1084.000000	87.260588
1083.000000	87.201515
1082.000000	87.149335
1081.000000	87.091710
1080.000000	87.026379
1079.000000	86.963530
1078.000000	86.905793
1077.000000	86.844280
1076.000000	86.777292
1075.000000	86.713060
1074.000000	86.648906
1073.000000	86.566117
1072.000000	86.451111
1071.000000	86.305812
1070.000000	86.134127
1069.000000	85.934606
1068.000000	85.710332
1067.000000	85.469956
1066.000000	85.215165
1065.000000	84.943253
1064.000000	84.664975
1063.000000	84.402348
1062.000000	84.165240
1061.000000	83.947092
1060.000000	83.744720
1059.000000	83.562005
1058.000000	83.392591
1057.000000	83.221047
1056.000000	83.044280
1055.000000	82.870477
1054.000000	82.694218
1053.000000	82.495635
1052.000000	82.268842
1051.000000	82.027136
1050.000000	81.774528
1049.000000	81.499653
1048.000000	81.204349
1047.000000	80.908145
1046.000000	80.617728
1045.000000	80.320546
1044.000000	80.013476
1043.000000	79.710021
1042.000000	79.413580
1041.000000	79.110929
1040.000000	78.800440
1039.000000	78.500830
1038.000000	78.223042
1037.000000	77.958900
1036.000000	77.706034
1035.000000	77.477674
1034.000000	77.278024
1033.000000	77.093182
1032.000000	76.916087
1031.000000	76.756397
1030.000000	76.617299
1029.000000	76.487378
1028.000000	76.363487
1027.000000	76.256488
1026.000000	76.166086
1025.000000	76.075583
1024.000000	75.980197
1023.000000	75.895119
1022.000000	75.826382
1021.000000	75.758682
1020.000000	75.681408
1019.000000	75.603069
1018.000000	75.531012
1017.000000	75.459680
1016.000000	75.386879
1015.000000	75.319476
1014.000000	75.256181
1013.000000	75.186711
1012.000000	75.113402
1011.000000	75.051033
1010.000000	75.000884
1009.000000	74.948617
1008.000000	74.892067
1007.000000	74.846504
1006.000000	74.817475
1005.000000	74.793318
1004.000000	74.769631
1003.000000	74.756485
1002.000000	74.756375
1001.000000	74.759683
1000.000000	74.766889
999.000000	74.790409
998.000000	74.829035
997.000000	74.864919
996.000000	74.891335
995.000000	74.920009
994.000000	74.956921
993.000000	74.995540
992.000000	75.038243
991.000000	75.099243
990.000000	75.180864
989.000000	75.270431
988.000000	75.364637
987.000000	75.473244
986.000000	75.595792
985.000000	75.720486
984.000000	75.850576
983.000000	76.006028
982.000000	76.193485
981.000000	76.398481
980.000000	76.611763
979.000000	76.839482
978.000000	77.083031
977.000000	77.333434
976.000000	77.590964
975.000000	77.867153
974.000000	78.162487
973.000000	78.464107
972.000000	78.768724
971.000000	79.085142
970.000000	79.411301
969.000000	79.732628
968.000000	80.047122
967.000000	80.368590
966.000000	80.700128
965.000000	81.026696
964.000000	81.338984
963.000000	81.643021
962.000000	81.941194
961.000000	82.225240
960.000000	82.494404
959.000000	82.760726
958.000000	83.029318
957.000000	83.290776
956.000000	83.538871
955.000000	83.778963
954.000000	84.014020
953.000000	84.238467
952.000000	84.450414
951.000000	84.654621
950.000000	84.849865
949.000000	85.028315
948.000000	85.190228
947.000000	85.345044
946.000000	85.496621
945.000000	85.641836
944.000000	85.783383
943.000000	85.927140
942.000000	86.066858
941.000000	86.189443
940.000000	86.296655
939.000000	86.404586
938.000000	86.520956
937.000000	86.640566
936.000000	86.763225
935.000000	86.895568
934.000000	87.032791
933.000000	87.159327
932.000000	87.272555
931.000000	87.387810
930.000000	87.515538
929.000000	87.650584
928.000000	87.787522
927.000000	87.928177
926.000000	88.069110
925.000000	88.199014
924.000000	88.314433
923.000000	88.423771
922.000000	88.532403
921.000000	88.638108
920.000000	88.742557
919.000000	88.850991
918.000000	88.958884
917.000000	89.056358
916.000000	89.148076
915.000000	89.250829
914.000000	89.368694
913.000000	89.489466
912.000000	89.610065
911.000000	89.746667
910.000000	89.913220
909.000000	90.106881
908.000000	90.320147
907.000000	90.551150
906.000000	90.796938
905.000000	91.052502
904.000000	91.320939
903.000000	91.608961
902.000000	91.909074
901.000000	92.202988
900.000000	92.486654
899.000000	92.774714
898.000000	93.074481
897.000000	93.372340
896.000000	93.652540
895.000000	93.914920
894.000000	94.167053
893.000000	94.411777
892.000000	94.649989
891.000000	94.885080
890.000000	95.117330
889.000000	95.341346
888.000000	95.553083
887.000000	95.752294
886.000000	95.937281
885.000000	96.106694
884.000000	96.267203
883.000000	96.428156
882.000000	96.586837
881.000000	96.730992
880.000000	96.858587
879.000000	96.983443
878.000000	97.118625
877.000000	97.266008
876.000000	97.424774
875.000000	97.596065
874.000000	97.774665
873.000000	97.949376
872.000000	98.117388
871.000000	98.288005
870.000000	98.468236
869.000000	98.654232
868.000000	98.839464
867.000000	99.021233
866.000000	99.196727
865.000000	99.362506
864.000000	99.520946
863.000000	99.678672
862.000000	99.836262
861.000000	99.988120
860.000000	100.134524
859.000000	100.284109
858.000000	100.440595
857.000000	100.595233
856.000000	100.736770
855.000000	100.862152
854.000000	100.973888
853.000000	101.073044
852.000000	101.159292
851.000000	101.233975
850.000000	101.299881
849.000000	101.360166
848.000000	101.417739
847.000000	101.472136
846.000000	101.517527
845.000000	101.548122
844.000000	101.564561
843.000000	101.570530
842.000000	101.565346
841.000000	101.545858
840.000000	101.513351
839.000000	101.471409
838.000000	101.418696
837.000000	101.351677
836.000000	101.273825
835.000000	101.194821
834.000000	101.121439
833.000000	101.056680
832.000000	101.006696
831.000000	100.979095
830.000000	100.973669
829.000000	100.983405
828.000000	101.004791
827.000000	101.038257
826.000000	101.079733
825.000000	101.122333
824.000000	101.164192
823.000000	101.202661
822.000000	101.225646
821.000000	101.223771
820.000000	101.205902
819.000000	101.186322
818.000000	101.159867
817.000000	101.105057
816.000000	101.009575
815.000000	100.876787
814.000000	100.706312
813.000000	100.484289
812.000000	100.197518
811.000000	99.842153
810.000000	99.411352
809.000000	98.888924
808.000000	98.267204
807.000000	97.563253
806.000000	96.808717
805.000000	96.032026
804.000000	95.258631
803.000000	94.517702
802.000000	93.837828
801.000000	93.244488
800.000000	92.767248
799.000000	92.434956
798.000000	92.255171
797.000000	92.210003
796.000000	92.275051
795.000000	92.426521
794.000000	92.629115
793.000000	92.839343
792.000000	93.029187
791.000000	93.192326
790.000000	93.323868
789.000000	93.408886
788.000000	93.433280
787.000000	93.389976
786.000000	93.271010
785.000000	93.069931
784.000000	92.798941
783.000000	92.491650
782.000000	92.183968
781.000000	91.903398
780.000000	91.677925
779.000000	91.537314
778.000000	91.498562
777.000000	91.562664
776.000000	91.726143
775.000000	91.978152
774.000000	92.285657
773.000000	92.602715
772.000000	92.900246
771.000000	93.172751
770.000000	93.417683
769.000000	93.627770
768.000000	93.804484
767.000000	93.958557
766.000000	94.092795
765.000000	94.201830
764.000000	94.291580
763.000000	94.379692
762.000000	94.472193
761.000000	94.559226
760.000000	94.640284
759.000000	94.734448
758.000000	94.857054
757.000000	95.002982
756.000000	95.160470
755.000000	95.324145
754.000000	95.485774
753.000000	95.629071
752.000000	95.746066
751.000000	95.848483
750.000000	95.954489
749.000000	96.072397
748.000000	96.201688
747.000000	96.339185
746.000000	96.479489
745.000000	96.619846
744.000000	96.768130
743.000000	96.935137
742.000000	97.117302
741.000000	97.299738
740.000000	97.477048
739.000000	97.656541
738.000000	97.840082
737.000000	98.019066
736.000000	98.189537
735.000000	98.354336
734.000000	98.506016
733.000000	98.626433
732.000000	98.710903
731.000000	98.777011
730.000000	98.841176
729.000000	98.900616
728.000000	98.947060
727.000000	98.984670
726.000000	99.024680
725.000000	99.073191
724.000000	99.133391
723.000000	99.210471
722.000000	99.306561
721.000000	99.418616
720.000000	99.545386
719.000000	99.685969
718.000000	99.827843
717.000000	99.949880
716.000000	100.043793
715.000000	100.122102
714.000000	100.199985
713.000000	100.279966
712.000000	100.358633
711.000000	100.433931
710.000000	100.497863
709.000000	100.535767
708.000000	100.543175
707.000000	100.532803
706.000000	100.515599
705.000000	100.484085
704.000000	100.421854
703.000000	100.316577
702.000000	100.152792
701.000000	99.905742
700.000000	99.560749
699.000000	99.136711
698.000000	98.683338
697.000000	98.260971
696.000000	97.927695
695.000000	97.730590
694.000000	97.690426
693.000000	97.793430
692.000000	98.001178
691.000000	98.266009
690.000000	98.541641
689.000000	98.794063
688.000000	99.012521
687.000000	99.205099
686.000000	99.377807
685.000000	99.526385
684.000000	99.651243
683.000000	99.765384
682.000000	99.879655
681.000000	99.990188
680.000000	100.087863
679.000000	100.171745
678.000000	100.246533
677.000000	100.316615
676.000000	100.388652
675.000000	100.470023
674.000000	100.560081
673.000000	100.649000
672.000000	100.728749
671.000000	100.801005
670.000000	100.874075
669.000000	100.961140
668.000000	101.077283
667.000000	101.206683
666.000000	101.308678
665.000000	101.376835
664.000000	101.426746
663.000000	101.473196
662.000000	101.519468
661.000000	101.555934
660.000000	101.571096
659.000000	101.559397
658.000000	101.521363
657.000000	101.467058
656.000000	101.416067
655.000000	101.380928
654.000000	101.352200
653.000000	101.314344
652.000000	101.274283
651.000000	101.253294
650.000000	101.250019
649.000000	101.240942
648.000000	101.225480
647.000000	101.240631
646.000000	101.317535
645.000000	101.446910
644.000000	101.597993
643.000000	101.744761
642.000000	101.865262
641.000000	101.946775
640.000000	102.004907
639.000000	102.073428
638.000000	102.161705
637.000000	102.246058
636.000000	102.313290
635.000000	102.378449
634.000000	102.444567
633.000000	102.484460
632.000000	102.488228
631.000000	102.494475
630.000000	102.546247
629.000000	102.640372
628.000000	102.748041
627.000000	102.856257
626.000000	102.957854
625.000000	103.029124
624.000000	103.059581
623.000000	103.084724
622.000000	103.145212
621.000000	103.221405
620.000000	103.253610
619.000000	103.221099
618.000000	103.164609
617.000000	103.131650
616.000000	103.134859
615.000000	103.165080
614.000000	103.203832
613.000000	103.220691
612.000000	103.188281
611.000000	103.105852
610.000000	102.996562
609.000000	102.884482
608.000000	102.790705
607.000000	102.734980
606.000000	102.716669
605.000000	102.712171
604.000000	102.710564
603.000000	102.725545
602.000000	102.754097
601.000000	102.756563
600.000000	102.704682
599.000000	102.622521
598.000000	102.550357
597.000000	102.489329
596.000000	102.418181
595.000000	102.344889
594.000000	102.305254
593.000000	102.317547
592.000000	102.366501
591.000000	102.422948
590.000000	102.463458
589.000000	102.484533
588.000000	102.503931
587.000000	102.533636
586.000000	102.552765
585.000000	102.538435
584.000000	102.525302
583.000000	102.585746
582.000000	102.736049
581.000000	102.913631
580.000000	103.066722
579.000000	103.202179
578.000000	103.326011
577.000000	103.403797
576.000000	103.410913
575.000000	103.369696
574.000000	103.309731
573.000000	103.240524
572.000000	103.192669
571.000000	103.218103
570.000000	103.299912
569.000000	103.337116
568.000000	103.275532
567.000000	103.181001
566.000000	103.133365
565.000000	103.116896
564.000000	103.086193
563.000000	103.054010
562.000000	103.040422
561.000000	103.004319
560.000000	102.905814
559.000000	102.784658
558.000000	102.711141
557.000000	102.696636
556.000000	102.710046
555.000000	102.729317
554.000000	102.733931
553.000000	102.716746
552.000000	102.733433
551.000000	102.856106
550.000000	103.052058
