PE IR       SUBTECH     SPECTRUM    ASCII       PEDS        4.00        
   -1
BH1 8-1 2 85_1.asc
24/05/17
14:07:07.00
24/05/17
14:07:12.00
Administrator
?品 155 用? Administrator 日期 Friday, May 17 2024
550.000000
#HDR
-1
-1
#GR
cm-1
%T
1.0
0.0
4000.000000
-1.000000
3451
8
100.796406
86.922503
#DATA
4000.000000	100.650616
3999.000000	100.648635
3998.000000	100.646964
3997.000000	100.645828
3996.000000	100.645299
3995.000000	100.645186
3994.000000	100.645027
3993.000000	100.644389
3992.000000	100.643179
3991.000000	100.641768
3990.000000	100.640753
3989.000000	100.640434
3988.000000	100.640604
3987.000000	100.640686
3986.000000	100.640227
3985.000000	100.639225
3984.000000	100.638089
3983.000000	100.637299
3982.000000	100.636959
3981.000000	100.636711
3980.000000	100.636080
3979.000000	100.634962
3978.000000	100.633750
3977.000000	100.632981
3976.000000	100.632834
3975.000000	100.633009
3974.000000	100.633059
3973.000000	100.632866
3972.000000	100.632762
3971.000000	100.633191
3970.000000	100.634246
3969.000000	100.635448
3968.000000	100.636051
3967.000000	100.635636
3966.000000	100.634359
3965.000000	100.632769
3964.000000	100.631363
3963.000000	100.630362
3962.000000	100.629860
3961.000000	100.629960
3960.000000	100.630706
3959.000000	100.631917
3958.000000	100.633187
3957.000000	100.634095
3956.000000	100.634414
3955.000000	100.634158
3954.000000	100.633481
3953.000000	100.632596
3952.000000	100.631782
3951.000000	100.631390
3950.000000	100.631671
3949.000000	100.632501
3948.000000	100.633390
3947.000000	100.633941
3946.000000	100.634230
3945.000000	100.634659
3944.000000	100.635378
3943.000000	100.635925
3942.000000	100.635602
3941.000000	100.634194
3940.000000	100.632156
3939.000000	100.630205
3938.000000	100.628814
3937.000000	100.628131
3936.000000	100.628164
3935.000000	100.628936
3934.000000	100.630400
3933.000000	100.632176
3932.000000	100.633522
3931.000000	100.633813
3930.000000	100.633056
3929.000000	100.631915
3928.000000	100.631249
3927.000000	100.631567
3926.000000	100.632773
3925.000000	100.634159
3924.000000	100.634838
3923.000000	100.634420
3922.000000	100.633242
3921.000000	100.632005
3920.000000	100.631244
3919.000000	100.630976
3918.000000	100.630667
3917.000000	100.629696
3916.000000	100.628107
3915.000000	100.626751
3914.000000	100.626505
3913.000000	100.627403
3912.000000	100.628607
3911.000000	100.629260
3910.000000	100.629257
3909.000000	100.629235
3908.000000	100.629960
3907.000000	100.631828
3906.000000	100.634641
3905.000000	100.637538
3904.000000	100.639298
3903.000000	100.639239
3902.000000	100.637855
3901.000000	100.636345
3900.000000	100.635431
3899.000000	100.634960
3898.000000	100.634591
3897.000000	100.634342
3896.000000	100.634354
3895.000000	100.634551
3894.000000	100.634713
3893.000000	100.634697
3892.000000	100.634575
3891.000000	100.634640
3890.000000	100.635152
3889.000000	100.636043
3888.000000	100.636590
3887.000000	100.635897
3886.000000	100.633851
3885.000000	100.631176
3884.000000	100.628922
3883.000000	100.628038
3882.000000	100.628794
3881.000000	100.630619
3880.000000	100.632592
3879.000000	100.634283
3878.000000	100.636136
3877.000000	100.638492
3876.000000	100.640819
3875.000000	100.642155
3874.000000	100.641779
3873.000000	100.639936
3872.000000	100.637919
3871.000000	100.636769
3870.000000	100.636223
3869.000000	100.635571
3868.000000	100.635081
3867.000000	100.635609
3866.000000	100.637201
3865.000000	100.639182
3864.000000	100.640932
3863.000000	100.642112
3862.000000	100.642612
3861.000000	100.642333
3860.000000	100.641115
3859.000000	100.639063
3858.000000	100.636651
3857.000000	100.634645
3856.000000	100.633877
3855.000000	100.634834
3854.000000	100.637056
3853.000000	100.639012
3852.000000	100.639758
3851.000000	100.640415
3850.000000	100.641556
3849.000000	100.641841
3848.000000	100.640701
3847.000000	100.638851
3846.000000	100.637145
3845.000000	100.635856
3844.000000	100.634563
3843.000000	100.632644
3842.000000	100.630020
3841.000000	100.627659
3840.000000	100.626952
3839.000000	100.628414
3838.000000	100.630883
3837.000000	100.632387
3836.000000	100.632024
3835.000000	100.630274
3834.000000	100.628085
3833.000000	100.626314
3832.000000	100.625652
3831.000000	100.626587
3830.000000	100.629207
3829.000000	100.632851
3828.000000	100.636174
3827.000000	100.638021
3826.000000	100.638233
3825.000000	100.637554
3824.000000	100.636677
3823.000000	100.635491
3822.000000	100.633598
3821.000000	100.631144
3820.000000	100.628641
3819.000000	100.626767
3818.000000	100.625738
3817.000000	100.624989
3816.000000	100.624392
3815.000000	100.624314
3814.000000	100.624866
3813.000000	100.625733
3812.000000	100.626405
3811.000000	100.626889
3810.000000	100.627653
3809.000000	100.628706
3808.000000	100.629363
3807.000000	100.629085
3806.000000	100.628338
3805.000000	100.628291
3804.000000	100.629635
3803.000000	100.631866
3802.000000	100.633632
3801.000000	100.633829
3800.000000	100.632459
3799.000000	100.630363
3798.000000	100.628062
3797.000000	100.625867
3796.000000	100.624583
3795.000000	100.624829
3794.000000	100.626308
3793.000000	100.627922
3792.000000	100.628695
3791.000000	100.628564
3790.000000	100.628121
3789.000000	100.627808
3788.000000	100.627488
3787.000000	100.626751
3786.000000	100.625504
3785.000000	100.624238
3784.000000	100.623659
3783.000000	100.624088
3782.000000	100.625199
3781.000000	100.626190
3780.000000	100.626410
3779.000000	100.625878
3778.000000	100.625145
3777.000000	100.624740
3776.000000	100.624753
3775.000000	100.625020
3774.000000	100.625618
3773.000000	100.626869
3772.000000	100.628839
3771.000000	100.631021
3770.000000	100.632701
3769.000000	100.633681
3768.000000	100.634257
3767.000000	100.634385
3766.000000	100.633446
3765.000000	100.631286
3764.000000	100.628847
3763.000000	100.627207
3762.000000	100.626232
3761.000000	100.624701
3760.000000	100.621982
3759.000000	100.619195
3758.000000	100.618084
3757.000000	100.619037
3756.000000	100.620821
3755.000000	100.622027
3754.000000	100.622327
3753.000000	100.622471
3752.000000	100.623323
3751.000000	100.624922
3750.000000	100.626846
3749.000000	100.629282
3748.000000	100.632266
3747.000000	100.634216
3746.000000	100.632998
3745.000000	100.628467
3744.000000	100.623298
3743.000000	100.620286
3742.000000	100.619792
3741.000000	100.619954
3740.000000	100.619596
3739.000000	100.620294
3738.000000	100.623913
3737.000000	100.629544
3736.000000	100.633462
3735.000000	100.632592
3734.000000	100.627814
3733.000000	100.623067
3732.000000	100.621118
3731.000000	100.621670
3730.000000	100.622929
3729.000000	100.622893
3728.000000	100.619962
3727.000000	100.613713
3726.000000	100.605394
3725.000000	100.597146
3724.000000	100.590471
3723.000000	100.585598
3722.000000	100.582249
3721.000000	100.580371
3720.000000	100.579890
3719.000000	100.580424
3718.000000	100.581479
3717.000000	100.582625
3716.000000	100.583312
3715.000000	100.582607
3714.000000	100.579358
3713.000000	100.573238
3712.000000	100.565508
3711.000000	100.557978
3710.000000	100.551751
3709.000000	100.547259
3708.000000	100.544009
3707.000000	100.540638
3706.000000	100.536237
3705.000000	100.531007
3704.000000	100.525721
3703.000000	100.521047
3702.000000	100.517029
3701.000000	100.512901
3700.000000	100.507651
3699.000000	100.500885
3698.000000	100.493228
3697.000000	100.486507
3696.000000	100.482950
3695.000000	100.483329
3694.000000	100.485957
3693.000000	100.487821
3692.000000	100.486930
3691.000000	100.483236
3690.000000	100.477396
3689.000000	100.469845
3688.000000	100.461982
3687.000000	100.456176
3686.000000	100.452682
3685.000000	100.448977
3684.000000	100.443058
3683.000000	100.435311
3682.000000	100.427422
3681.000000	100.420270
3680.000000	100.412987
3679.000000	100.404407
3678.000000	100.395036
3677.000000	100.386661
3676.000000	100.380386
3675.000000	100.375664
3674.000000	100.372562
3673.000000	100.372307
3672.000000	100.371848
3671.000000	100.365424
3670.000000	100.352031
3669.000000	100.336020
3668.000000	100.322627
3667.000000	100.312795
3666.000000	100.302729
3665.000000	100.290147
3664.000000	100.277298
3663.000000	100.267060
3662.000000	100.259212
3661.000000	100.251297
3660.000000	100.242166
3659.000000	100.233300
3658.000000	100.226294
3657.000000	100.220028
3656.000000	100.211720
3655.000000	100.200899
3654.000000	100.190127
3653.000000	100.180889
3652.000000	100.171667
3651.000000	100.160581
3650.000000	100.148105
3649.000000	100.136246
3648.000000	100.126163
3647.000000	100.117946
3646.000000	100.110446
3645.000000	100.101873
3644.000000	100.092235
3643.000000	100.083478
3642.000000	100.077340
3641.000000	100.073843
3640.000000	100.071306
3639.000000	100.067270
3638.000000	100.059573
3637.000000	100.047782
3636.000000	100.033867
3635.000000	100.020867
3634.000000	100.010498
3633.000000	100.002378
3632.000000	99.995728
3631.000000	99.991055
3630.000000	99.990088
3629.000000	99.993208
3628.000000	99.997186
3627.000000	99.999723
3626.000000	100.001131
3625.000000	99.999544
3624.000000	99.993426
3623.000000	99.984398
3622.000000	99.975397
3621.000000	99.969761
3620.000000	99.970281
3619.000000	99.976958
3618.000000	99.986311
3617.000000	99.994359
3616.000000	99.999054
3615.000000	100.000845
3614.000000	100.002739
3613.000000	100.007984
3612.000000	100.017280
3611.000000	100.028697
3610.000000	100.039357
3609.000000	100.047130
3608.000000	100.051514
3607.000000	100.053607
3606.000000	100.055877
3605.000000	100.060755
3604.000000	100.068551
3603.000000	100.076913
3602.000000	100.082170
3601.000000	100.082119
3600.000000	100.078547
3599.000000	100.076429
3598.000000	100.079630
3597.000000	100.087403
3596.000000	100.095306
3595.000000	100.099236
3594.000000	100.098680
3593.000000	100.096232
3592.000000	100.094346
3591.000000	100.093321
3590.000000	100.092678
3589.000000	100.093372
3588.000000	100.097391
3587.000000	100.104660
3586.000000	100.112244
3585.000000	100.117062
3584.000000	100.117343
3583.000000	100.112823
3582.000000	100.105009
3581.000000	100.096446
3580.000000	100.089789
3579.000000	100.087083
3578.000000	100.088794
3577.000000	100.093038
3576.000000	100.096257
3575.000000	100.095632
3574.000000	100.091238
3573.000000	100.085900
3572.000000	100.082762
3571.000000	100.082721
3570.000000	100.084167
3569.000000	100.084669
3568.000000	100.083056
3567.000000	100.079943
3566.000000	100.076390
3565.000000	100.072877
3564.000000	100.069504
3563.000000	100.066574
3562.000000	100.064864
3561.000000	100.064761
3560.000000	100.065510
3559.000000	100.066042
3558.000000	100.066121
3557.000000	100.066228
3556.000000	100.066681
3555.000000	100.067291
3554.000000	100.067635
3553.000000	100.067268
3552.000000	100.065739
3551.000000	100.062877
3550.000000	100.059141
3549.000000	100.055588
3548.000000	100.053355
3547.000000	100.052914
3546.000000	100.053669
3545.000000	100.054328
3544.000000	100.054005
3543.000000	100.052860
3542.000000	100.051651
3541.000000	100.050957
3540.000000	100.050785
3539.000000	100.050712
3538.000000	100.050319
3537.000000	100.049602
3536.000000	100.048849
3535.000000	100.048175
3534.000000	100.047411
3533.000000	100.046478
3532.000000	100.045650
3531.000000	100.045274
3530.000000	100.045325
3529.000000	100.045411
3528.000000	100.045217
3527.000000	100.044866
3526.000000	100.044728
3525.000000	100.044972
3524.000000	100.045435
3523.000000	100.045852
3522.000000	100.046109
3521.000000	100.046235
3520.000000	100.046223
3519.000000	100.045962
3518.000000	100.045399
3517.000000	100.044672
3516.000000	100.044059
3515.000000	100.043740
3514.000000	100.043658
3513.000000	100.043641
3512.000000	100.043596
3511.000000	100.043554
3510.000000	100.043516
3509.000000	100.043372
3508.000000	100.043056
3507.000000	100.042673
3506.000000	100.042374
3505.000000	100.042176
3504.000000	100.041988
3503.000000	100.041799
3502.000000	100.041722
3501.000000	100.041769
3500.000000	100.041703
3499.000000	100.041253
3498.000000	100.040430
3497.000000	100.039615
3496.000000	100.039243
3495.000000	100.039424
3494.000000	100.039812
3493.000000	100.039850
3492.000000	100.039272
3491.000000	100.038214
3490.000000	100.036993
3489.000000	100.035797
3488.000000	100.034654
3487.000000	100.033567
3486.000000	100.032566
3485.000000	100.031646
3484.000000	100.030745
3483.000000	100.029796
3482.000000	100.028789
3481.000000	100.027798
3480.000000	100.026982
3479.000000	100.026450
3478.000000	100.026054
3477.000000	100.025376
3476.000000	100.024091
3475.000000	100.022362
3474.000000	100.020771
3473.000000	100.019696
3472.000000	100.018879
3471.000000	100.017675
3470.000000	100.015681
3469.000000	100.013060
3468.000000	100.010387
3467.000000	100.008244
3466.000000	100.006825
3465.000000	100.005791
3464.000000	100.004450
3463.000000	100.002267
3462.000000	99.999344
3461.000000	99.996422
3460.000000	99.994275
3459.000000	99.993057
3458.000000	99.992246
3457.000000	99.991232
3456.000000	99.989951
3455.000000	99.988827
3454.000000	99.988122
3453.000000	99.987420
3452.000000	99.985943
3451.000000	99.983279
3450.000000	99.979682
3449.000000	99.975886
3448.000000	99.972653
3447.000000	99.970413
3446.000000	99.969160
3445.000000	99.968512
3444.000000	99.967907
3443.000000	99.966947
3442.000000	99.965643
3441.000000	99.964365
3440.000000	99.963572
3439.000000	99.963447
3438.000000	99.963640
3437.000000	99.963417
3436.000000	99.962214
3435.000000	99.960079
3434.000000	99.957567
3433.000000	99.955241
3432.000000	99.953293
3431.000000	99.951684
3430.000000	99.950489
3429.000000	99.949945
3428.000000	99.950180
3427.000000	99.950906
3426.000000	99.951459
3425.000000	99.951213
3424.000000	99.949951
3423.000000	99.947942
3422.000000	99.945673
3421.000000	99.943555
3420.000000	99.941887
3419.000000	99.940843
3418.000000	99.940385
3417.000000	99.940228
3416.000000	99.940032
3415.000000	99.939706
3414.000000	99.939389
3413.000000	99.939176
3412.000000	99.938963
3411.000000	99.938568
3410.000000	99.937910
3409.000000	99.937050
3408.000000	99.936159
3407.000000	99.935484
3406.000000	99.935240
3405.000000	99.935430
3404.000000	99.935765
3403.000000	99.935834
3402.000000	99.935436
3401.000000	99.934752
3400.000000	99.934242
3399.000000	99.934242
3398.000000	99.934656
3397.000000	99.935058
3396.000000	99.935139
3395.000000	99.934983
3394.000000	99.934861
3393.000000	99.934886
3392.000000	99.934991
3391.000000	99.935177
3390.000000	99.935554
3389.000000	99.936074
3388.000000	99.936469
3387.000000	99.936623
3386.000000	99.936901
3385.000000	99.937868
3384.000000	99.939661
3383.000000	99.941693
3382.000000	99.943057
3381.000000	99.943286
3380.000000	99.942658
3379.000000	99.942020
3378.000000	99.942098
3377.000000	99.942939
3376.000000	99.943960
3375.000000	99.944492
3374.000000	99.944315
3373.000000	99.943686
3372.000000	99.943020
3371.000000	99.942686
3370.000000	99.942993
3369.000000	99.944021
3368.000000	99.945373
3367.000000	99.946436
3366.000000	99.947186
3365.000000	99.948471
3364.000000	99.951139
3363.000000	99.954969
3362.000000	99.958612
3361.000000	99.960809
3360.000000	99.961380
3359.000000	99.961081
3358.000000	99.960741
3357.000000	99.960584
3356.000000	99.960442
3355.000000	99.960262
3354.000000	99.960287
3353.000000	99.960833
3352.000000	99.961968
3351.000000	99.963398
3350.000000	99.964709
3349.000000	99.965754
3348.000000	99.966716
3347.000000	99.967727
3346.000000	99.968597
3345.000000	99.969112
3344.000000	99.969489
3343.000000	99.970199
3342.000000	99.971257
3341.000000	99.972066
3340.000000	99.972265
3339.000000	99.972456
3338.000000	99.973574
3337.000000	99.975690
3336.000000	99.977982
3335.000000	99.979760
3334.000000	99.981151
3333.000000	99.982656
3332.000000	99.984378
3331.000000	99.985971
3330.000000	99.987166
3329.000000	99.988087
3328.000000	99.989065
3327.000000	99.990283
3326.000000	99.991595
3325.000000	99.992646
3324.000000	99.993216
3323.000000	99.993445
3322.000000	99.993743
3321.000000	99.994438
3320.000000	99.995504
3319.000000	99.996684
3318.000000	99.997780
3317.000000	99.998796
3316.000000	99.999830
3315.000000	100.000918
3314.000000	100.002017
3313.000000	100.003077
3312.000000	100.004106
3311.000000	100.005127
3310.000000	100.006113
3309.000000	100.007018
3308.000000	100.007859
3307.000000	100.008697
3306.000000	100.009575
3305.000000	100.010481
3304.000000	100.011396
3303.000000	100.012316
3302.000000	100.013239
3301.000000	100.014157
3300.000000	100.015064
3299.000000	100.015962
3298.000000	100.016857
3297.000000	100.017757
3296.000000	100.018667
3295.000000	100.019589
3294.000000	100.020523
3293.000000	100.021465
3292.000000	100.022409
3291.000000	100.023347
3290.000000	100.024280
3289.000000	100.025218
3288.000000	100.026177
3287.000000	100.027166
3286.000000	100.028181
3285.000000	100.029205
3284.000000	100.030212
3283.000000	100.031180
3282.000000	100.032116
3281.000000	100.033065
3280.000000	100.034068
3279.000000	100.035116
3278.000000	100.036168
3277.000000	100.037200
3276.000000	100.038217
3275.000000	100.039225
3274.000000	100.040241
3273.000000	100.041329
3272.000000	100.042574
3271.000000	100.044006
3270.000000	100.045536
3269.000000	100.046975
3268.000000	100.048150
3267.000000	100.049057
3266.000000	100.049869
3265.000000	100.050749
3264.000000	100.051707
3263.000000	100.052695
3262.000000	100.053804
3261.000000	100.055236
3260.000000	100.057035
3259.000000	100.058932
3258.000000	100.060580
3257.000000	100.061881
3256.000000	100.062988
3255.000000	100.064111
3254.000000	100.065366
3253.000000	100.066762
3252.000000	100.068180
3251.000000	100.069410
3250.000000	100.070323
3249.000000	100.071034
3248.000000	100.071836
3247.000000	100.072905
3246.000000	100.074179
3245.000000	100.075467
3244.000000	100.076645
3243.000000	100.077723
3242.000000	100.078787
3241.000000	100.079887
3240.000000	100.080995
3239.000000	100.082057
3238.000000	100.083095
3237.000000	100.084216
3236.000000	100.085493
3235.000000	100.086863
3234.000000	100.088181
3233.000000	100.089392
3232.000000	100.090581
3231.000000	100.091838
3230.000000	100.093100
3229.000000	100.094196
3228.000000	100.095063
3227.000000	100.095880
3226.000000	100.096952
3225.000000	100.098438
3224.000000	100.100248
3223.000000	100.102063
3222.000000	100.103547
3221.000000	100.104536
3220.000000	100.105073
3219.000000	100.105396
3218.000000	100.105816
3217.000000	100.106539
3216.000000	100.107593
3215.000000	100.108883
3214.000000	100.110300
3213.000000	100.111763
3212.000000	100.113137
3211.000000	100.114241
3210.000000	100.114997
3209.000000	100.115514
3208.000000	100.116012
3207.000000	100.116662
3206.000000	100.117502
3205.000000	100.118464
3204.000000	100.119439
3203.000000	100.120395
3202.000000	100.121431
3201.000000	100.122662
3200.000000	100.124060
3199.000000	100.125469
3198.000000	100.126721
3197.000000	100.127680
3196.000000	100.128253
3195.000000	100.128545
3194.000000	100.128980
3193.000000	100.130020
3192.000000	100.131719
3191.000000	100.133729
3190.000000	100.135744
3189.000000	100.137745
3188.000000	100.139740
3187.000000	100.141539
3186.000000	100.142933
3185.000000	100.143882
3184.000000	100.144416
3183.000000	100.144581
3182.000000	100.144691
3181.000000	100.145267
3180.000000	100.146520
3179.000000	100.148111
3178.000000	100.149554
3177.000000	100.150766
3176.000000	100.152009
3175.000000	100.153507
3174.000000	100.155390
3173.000000	100.157779
3172.000000	100.160590
3171.000000	100.163301
3170.000000	100.165248
3169.000000	100.166235
3168.000000	100.166639
3167.000000	100.167062
3166.000000	100.167874
3165.000000	100.169125
3164.000000	100.170713
3163.000000	100.172499
3162.000000	100.174340
3161.000000	100.176129
3160.000000	100.177781
3159.000000	100.179230
3158.000000	100.180484
3157.000000	100.181663
3156.000000	100.182918
3155.000000	100.184320
3154.000000	100.185831
3153.000000	100.187375
3152.000000	100.188881
3151.000000	100.190317
3150.000000	100.191690
3149.000000	100.193043
3148.000000	100.194419
3147.000000	100.195827
3146.000000	100.197241
3145.000000	100.198630
3144.000000	100.199986
3143.000000	100.201319
3142.000000	100.202656
3141.000000	100.204032
3140.000000	100.205463
3139.000000	100.206935
3138.000000	100.208412
3137.000000	100.209862
3136.000000	100.211278
3135.000000	100.212663
3134.000000	100.214022
3133.000000	100.215367
3132.000000	100.216711
3131.000000	100.218073
3130.000000	100.219469
3129.000000	100.220902
3128.000000	100.222360
3127.000000	100.223826
3126.000000	100.225282
3125.000000	100.226716
3124.000000	100.228131
3123.000000	100.229548
3122.000000	100.230978
3121.000000	100.232439
3120.000000	100.233968
3119.000000	100.235590
3118.000000	100.237237
3117.000000	100.238739
3116.000000	100.239933
3115.000000	100.240784
3114.000000	100.241494
3113.000000	100.242419
3112.000000	100.243818
3111.000000	100.245684
3110.000000	100.247757
3109.000000	100.249764
3108.000000	100.251590
3107.000000	100.253252
3106.000000	100.254831
3105.000000	100.256376
3104.000000	100.257822
3103.000000	100.258989
3102.000000	100.259770
3101.000000	100.260361
3100.000000	100.261162
3099.000000	100.262372
3098.000000	100.263811
3097.000000	100.265164
3096.000000	100.266319
3095.000000	100.267410
3094.000000	100.268647
3093.000000	100.270159
3092.000000	100.271876
3091.000000	100.273534
3090.000000	100.274951
3089.000000	100.276385
3088.000000	100.278407
3087.000000	100.281188
3086.000000	100.284025
3085.000000	100.285916
3084.000000	100.286605
3083.000000	100.286759
3082.000000	100.287121
3081.000000	100.287763
3080.000000	100.288297
3079.000000	100.288466
3078.000000	100.288284
3077.000000	100.287823
3076.000000	100.287200
3075.000000	100.286794
3074.000000	100.287129
3073.000000	100.288334
3072.000000	100.289904
3071.000000	100.291245
3070.000000	100.292330
3069.000000	100.293546
3068.000000	100.295050
3067.000000	100.296594
3066.000000	100.297983
3065.000000	100.299310
3064.000000	100.300560
3063.000000	100.301320
3062.000000	100.301215
3061.000000	100.300466
3060.000000	100.299830
3059.000000	100.299979
3058.000000	100.301065
3057.000000	100.302785
3056.000000	100.304602
3055.000000	100.306020
3054.000000	100.306870
3053.000000	100.307371
3052.000000	100.307818
3051.000000	100.308187
3050.000000	100.308194
3049.000000	100.307778
3048.000000	100.307386
3047.000000	100.307664
3046.000000	100.308885
3045.000000	100.310815
3044.000000	100.312907
3043.000000	100.314658
3042.000000	100.315881
3041.000000	100.316713
3040.000000	100.317493
3039.000000	100.318512
3038.000000	100.319809
3037.000000	100.321191
3036.000000	100.322434
3035.000000	100.323471
3034.000000	100.324420
3033.000000	100.325472
3032.000000	100.326716
3031.000000	100.328057
3030.000000	100.329289
3029.000000	100.330301
3028.000000	100.331170
3027.000000	100.332065
3026.000000	100.333078
3025.000000	100.334237
3024.000000	100.335605
3023.000000	100.337212
3022.000000	100.338859
3021.000000	100.340178
3020.000000	100.341034
3019.000000	100.341800
3018.000000	100.343059
3017.000000	100.344901
3016.000000	100.346652
3015.000000	100.347550
3014.000000	100.347616
3013.000000	100.347642
3012.000000	100.348298
3011.000000	100.349575
3010.000000	100.351214
3009.000000	100.353311
3008.000000	100.356138
3007.000000	100.359587
3006.000000	100.363148
3005.000000	100.366322
3004.000000	100.368709
3003.000000	100.369870
3002.000000	100.369595
3001.000000	100.368356
3000.000000	100.367213
2999.000000	100.367017
2998.000000	100.367941
2997.000000	100.369802
2996.000000	100.372357
2995.000000	100.375102
2994.000000	100.377228
2993.000000	100.378223
2992.000000	100.378410
2991.000000	100.378616
2990.000000	100.379347
2989.000000	100.380471
2988.000000	100.381649
2987.000000	100.382913
2986.000000	100.384878
2985.000000	100.388334
2984.000000	100.393292
2983.000000	100.398309
2982.000000	100.401309
2981.000000	100.401418
2980.000000	100.399701
2979.000000	100.397857
2978.000000	100.396697
2977.000000	100.396465
2976.000000	100.397950
2975.000000	100.402077
2974.000000	100.408491
2973.000000	100.415638
2972.000000	100.422436
2971.000000	100.428947
2970.000000	100.435018
2969.000000	100.439375
2968.000000	100.441107
2967.000000	100.441475
2966.000000	100.443011
2965.000000	100.446708
2964.000000	100.451071
2963.000000	100.454201
2962.000000	100.456074
2961.000000	100.458159
2960.000000	100.461141
2959.000000	100.463713
2958.000000	100.464001
2957.000000	100.461951
2956.000000	100.459733
2955.000000	100.459559
2954.000000	100.461570
2953.000000	100.464454
2952.000000	100.467696
2951.000000	100.472166
2950.000000	100.478293
2949.000000	100.484691
2948.000000	100.489241
2947.000000	100.490929
2946.000000	100.490116
2945.000000	100.487783
2944.000000	100.485578
2943.000000	100.486112
2942.000000	100.491672
2941.000000	100.502031
2940.000000	100.514309
2939.000000	100.525717
2938.000000	100.536196
2937.000000	100.547918
2936.000000	100.562446
2935.000000	100.578865
2934.000000	100.594609
2933.000000	100.607730
2932.000000	100.618280
2931.000000	100.627579
2930.000000	100.636258
2929.000000	100.643420
2928.000000	100.648100
2927.000000	100.651050
2926.000000	100.653947
2925.000000	100.656660
2924.000000	100.656736
2923.000000	100.652603
2922.000000	100.646172
2921.000000	100.640814
2920.000000	100.637262
2919.000000	100.633223
2918.000000	100.626746
2917.000000	100.617962
2916.000000	100.607216
2915.000000	100.593617
2914.000000	100.576876
2913.000000	100.559377
2912.000000	100.544806
2911.000000	100.534923
2910.000000	100.528559
2909.000000	100.523232
2908.000000	100.516775
2907.000000	100.508060
2906.000000	100.497680
2905.000000	100.488186
2904.000000	100.482569
2903.000000	100.481911
2902.000000	100.484676
2901.000000	100.488262
2900.000000	100.490958
2899.000000	100.492723
2898.000000	100.494488
2897.000000	100.496664
2896.000000	100.498102
2895.000000	100.496840
2894.000000	100.492289
2893.000000	100.486250
2892.000000	100.481327
2891.000000	100.478788
2890.000000	100.478356
2889.000000	100.479139
2888.000000	100.479907
2887.000000	100.479259
2886.000000	100.476765
2885.000000	100.473598
2884.000000	100.470999
2883.000000	100.468595
2882.000000	100.465441
2881.000000	100.462268
2880.000000	100.461112
2879.000000	100.462721
2878.000000	100.465777
2877.000000	100.468740
2876.000000	100.471221
2875.000000	100.473459
2874.000000	100.475888
2873.000000	100.479349
2872.000000	100.484152
2871.000000	100.488554
2870.000000	100.489899
2869.000000	100.487864
2868.000000	100.484922
2867.000000	100.482936
2866.000000	100.481366
2865.000000	100.480153
2864.000000	100.482158
2863.000000	100.490301
2862.000000	100.503323
2861.000000	100.516680
2860.000000	100.527396
2859.000000	100.535938
2858.000000	100.543681
2857.000000	100.550913
2856.000000	100.557637
2855.000000	100.564222
2854.000000	100.570203
2853.000000	100.573600
2852.000000	100.572320
2851.000000	100.565841
2850.000000	100.555302
2849.000000	100.542674
2848.000000	100.530030
2847.000000	100.518827
2846.000000	100.509349
2845.000000	100.501020
2844.000000	100.493407
2843.000000	100.486789
2842.000000	100.481922
2841.000000	100.479493
2840.000000	100.479528
2839.000000	100.480879
2838.000000	100.481500
2837.000000	100.479760
2836.000000	100.475549
2835.000000	100.470057
2834.000000	100.464901
2833.000000	100.461664
2832.000000	100.461420
2831.000000	100.463833
2830.000000	100.467039
2829.000000	100.469278
2828.000000	100.470571
2827.000000	100.472007
2826.000000	100.473718
2825.000000	100.474491
2824.000000	100.473376
2823.000000	100.470758
2822.000000	100.467686
2821.000000	100.464973
2820.000000	100.463281
2819.000000	100.463302
2818.000000	100.465133
2817.000000	100.467586
2816.000000	100.468762
2815.000000	100.467723
2814.000000	100.465562
2813.000000	100.464577
2812.000000	100.466132
2811.000000	100.469463
2810.000000	100.472633
2809.000000	100.474383
2808.000000	100.474720
2807.000000	100.474097
2806.000000	100.472870
2805.000000	100.471638
2804.000000	100.471256
2803.000000	100.471968
2802.000000	100.473014
2801.000000	100.473621
2800.000000	100.474007
2799.000000	100.474800
2798.000000	100.475820
2797.000000	100.476183
2796.000000	100.475528
2795.000000	100.474535
2794.000000	100.474154
2793.000000	100.474649
2792.000000	100.475543
2791.000000	100.476212
2790.000000	100.476490
2789.000000	100.476897
2788.000000	100.478197
2787.000000	100.480546
2786.000000	100.483037
2785.000000	100.484450
2784.000000	100.484463
2783.000000	100.483763
2782.000000	100.483052
2781.000000	100.482410
2780.000000	100.481812
2779.000000	100.481619
2778.000000	100.482071
2777.000000	100.482719
2776.000000	100.482932
2775.000000	100.482826
2774.000000	100.483189
2773.000000	100.484489
2772.000000	100.486360
2771.000000	100.488028
2770.000000	100.488970
2769.000000	100.489152
2768.000000	100.488982
2767.000000	100.489167
2766.000000	100.490328
2765.000000	100.492525
2764.000000	100.495150
2763.000000	100.497334
2762.000000	100.498618
2761.000000	100.499294
2760.000000	100.500129
2759.000000	100.501642
2758.000000	100.503607
2757.000000	100.505302
2756.000000	100.506235
2755.000000	100.506515
2754.000000	100.506645
2753.000000	100.507161
2752.000000	100.508423
2751.000000	100.510396
2750.000000	100.512503
2749.000000	100.513983
2748.000000	100.514610
2747.000000	100.514794
2746.000000	100.514897
2745.000000	100.514745
2744.000000	100.514159
2743.000000	100.513614
2742.000000	100.513887
2741.000000	100.515164
2740.000000	100.516869
2739.000000	100.518314
2738.000000	100.519232
2737.000000	100.519616
2736.000000	100.519428
2735.000000	100.518782
2734.000000	100.518183
2733.000000	100.518195
2732.000000	100.518864
2731.000000	100.519697
2730.000000	100.520229
2729.000000	100.520477
2728.000000	100.520765
2727.000000	100.521237
2726.000000	100.521701
2725.000000	100.521915
2724.000000	100.521852
2723.000000	100.521654
2722.000000	100.521476
2721.000000	100.521401
2720.000000	100.521446
2719.000000	100.521569
2718.000000	100.521710
2717.000000	100.521850
2716.000000	100.522019
2715.000000	100.522219
2714.000000	100.522401
2713.000000	100.522511
2712.000000	100.522554
2711.000000	100.522578
2710.000000	100.522625
2709.000000	100.522725
2708.000000	100.522879
2707.000000	100.523064
2706.000000	100.523259
2705.000000	100.523457
2704.000000	100.523664
2703.000000	100.523883
2702.000000	100.524114
2701.000000	100.524358
2700.000000	100.524611
2699.000000	100.524871
2698.000000	100.525138
2697.000000	100.525413
2696.000000	100.525698
2695.000000	100.526000
2694.000000	100.526323
2693.000000	100.526672
2692.000000	100.527040
2691.000000	100.527417
2690.000000	100.527794
2689.000000	100.528170
2688.000000	100.528551
2687.000000	100.528946
2686.000000	100.529354
2685.000000	100.529772
2684.000000	100.530196
2683.000000	100.530628
2682.000000	100.531067
2681.000000	100.531514
2680.000000	100.531963
2679.000000	100.532411
2678.000000	100.532857
2677.000000	100.533296
2676.000000	100.533727
2675.000000	100.534145
2674.000000	100.534548
2673.000000	100.534939
2672.000000	100.535310
2671.000000	100.535665
2670.000000	100.536043
2669.000000	100.536471
2668.000000	100.536890
2667.000000	100.537196
2666.000000	100.537357
2665.000000	100.537472
2664.000000	100.537656
2663.000000	100.537932
2662.000000	100.538250
2661.000000	100.538556
2660.000000	100.538803
2659.000000	100.538907
2658.000000	100.538785
2657.000000	100.538519
2656.000000	100.538396
2655.000000	100.538707
2654.000000	100.539485
2653.000000	100.540453
2652.000000	100.541302
2651.000000	100.541945
2650.000000	100.542413
2649.000000	100.542640
2648.000000	100.542477
2647.000000	100.541980
2646.000000	100.541517
2645.000000	100.541420
2644.000000	100.541701
2643.000000	100.542102
2642.000000	100.542366
2641.000000	100.542411
2640.000000	100.542281
2639.000000	100.542053
2638.000000	100.541760
2637.000000	100.541343
2636.000000	100.540689
2635.000000	100.539802
2634.000000	100.538953
2633.000000	100.538573
2632.000000	100.538927
2631.000000	100.539927
2630.000000	100.541219
2629.000000	100.542368
2628.000000	100.543002
2627.000000	100.542924
2626.000000	100.542315
2625.000000	100.541790
2624.000000	100.542024
2623.000000	100.543152
2622.000000	100.544647
2621.000000	100.545830
2620.000000	100.546539
2619.000000	100.547175
2618.000000	100.548100
2617.000000	100.549129
2616.000000	100.549652
2615.000000	100.549239
2614.000000	100.548030
2613.000000	100.546662
2612.000000	100.545831
2611.000000	100.545841
2610.000000	100.546481
2609.000000	100.547238
2608.000000	100.547704
2607.000000	100.547870
2606.000000	100.548116
2605.000000	100.548926
2604.000000	100.550497
2603.000000	100.552449
2602.000000	100.553874
2601.000000	100.553893
2600.000000	100.552261
2599.000000	100.549555
2598.000000	100.546888
2597.000000	100.545208
2596.000000	100.544787
2595.000000	100.545276
2594.000000	100.546085
2593.000000	100.546841
2592.000000	100.547567
2591.000000	100.548445
2590.000000	100.549457
2589.000000	100.550279
2588.000000	100.550510
2587.000000	100.550050
2586.000000	100.549242
2585.000000	100.548626
2584.000000	100.548457
2583.000000	100.548498
2582.000000	100.548306
2581.000000	100.547682
2580.000000	100.546818
2579.000000	100.546074
2578.000000	100.545687
2577.000000	100.545654
2576.000000	100.545761
2575.000000	100.545710
2574.000000	100.545331
2573.000000	100.544749
2572.000000	100.544293
2571.000000	100.544213
2570.000000	100.544519
2569.000000	100.545054
2568.000000	100.545557
2567.000000	100.545739
2566.000000	100.545488
2565.000000	100.545070
2564.000000	100.544958
2563.000000	100.545305
2562.000000	100.545774
2561.000000	100.545970
2560.000000	100.545937
2559.000000	100.545975
2558.000000	100.546184
2557.000000	100.546376
2556.000000	100.546415
2555.000000	100.546446
2554.000000	100.546708
2553.000000	100.547210
2552.000000	100.547732
2551.000000	100.548069
2550.000000	100.548172
2549.000000	100.548118
2548.000000	100.548046
2547.000000	100.548088
2546.000000	100.548284
2545.000000	100.548548
2544.000000	100.548767
2543.000000	100.548946
2542.000000	100.549216
2541.000000	100.549688
2540.000000	100.550331
2539.000000	100.551029
2538.000000	100.551654
2537.000000	100.552131
2536.000000	100.552453
2535.000000	100.552652
2534.000000	100.552749
2533.000000	100.552765
2532.000000	100.552803
2531.000000	100.553015
2530.000000	100.553444
2529.000000	100.553997
2528.000000	100.554618
2527.000000	100.555347
2526.000000	100.556130
2525.000000	100.556764
2524.000000	100.557155
2523.000000	100.557532
2522.000000	100.558173
2521.000000	100.559042
2520.000000	100.559839
2519.000000	100.560418
2518.000000	100.560971
2517.000000	100.561739
2516.000000	100.562710
2515.000000	100.563633
2514.000000	100.564273
2513.000000	100.564564
2512.000000	100.564606
2511.000000	100.564598
2510.000000	100.564744
2509.000000	100.565145
2508.000000	100.565765
2507.000000	100.566473
2506.000000	100.567144
2505.000000	100.567734
2504.000000	100.568256
2503.000000	100.568682
2502.000000	100.568905
2501.000000	100.568868
2500.000000	100.568749
2499.000000	100.568928
2498.000000	100.569637
2497.000000	100.570746
2496.000000	100.571833
2495.000000	100.572586
2494.000000	100.573035
2493.000000	100.573369
2492.000000	100.573676
2491.000000	100.573910
2490.000000	100.574072
2489.000000	100.574307
2488.000000	100.574786
2487.000000	100.575513
2486.000000	100.576215
2485.000000	100.576515
2484.000000	100.576290
2483.000000	100.575850
2482.000000	100.575648
2481.000000	100.575783
2480.000000	100.575958
2479.000000	100.575948
2478.000000	100.575927
2477.000000	100.576210
2476.000000	100.576783
2475.000000	100.577249
2474.000000	100.577217
2473.000000	100.576697
2472.000000	100.576175
2471.000000	100.576312
2470.000000	100.577405
2469.000000	100.579144
2468.000000	100.580897
2467.000000	100.582299
2466.000000	100.583433
2465.000000	100.584429
2464.000000	100.585189
2463.000000	100.585586
2462.000000	100.585709
2461.000000	100.585676
2460.000000	100.585444
2459.000000	100.585059
2458.000000	100.584940
2457.000000	100.585545
2456.000000	100.586743
2455.000000	100.587777
2454.000000	100.588053
2453.000000	100.587742
2452.000000	100.587490
2451.000000	100.587689
2450.000000	100.588190
2449.000000	100.588671
2448.000000	100.589044
2447.000000	100.589416
2446.000000	100.589791
2445.000000	100.590054
2444.000000	100.590278
2443.000000	100.590804
2442.000000	100.591905
2441.000000	100.593488
2440.000000	100.595253
2439.000000	100.596999
2438.000000	100.598577
2437.000000	100.599672
2436.000000	100.599967
2435.000000	100.599527
2434.000000	100.598861
2433.000000	100.598553
2432.000000	100.598860
2431.000000	100.599633
2430.000000	100.600424
2429.000000	100.600727
2428.000000	100.600362
2427.000000	100.599722
2426.000000	100.599497
2425.000000	100.599987
2424.000000	100.600891
2423.000000	100.601763
2422.000000	100.602570
2421.000000	100.603540
2420.000000	100.604687
2419.000000	100.605743
2418.000000	100.606460
2417.000000	100.606794
2416.000000	100.606819
2415.000000	100.606669
2414.000000	100.606571
2413.000000	100.606753
2412.000000	100.607250
2411.000000	100.607885
2410.000000	100.608442
2409.000000	100.608820
2408.000000	100.609027
2407.000000	100.609116
2406.000000	100.609184
2405.000000	100.609338
2404.000000	100.609608
2403.000000	100.609924
2402.000000	100.610196
2401.000000	100.610408
2400.000000	100.610605
2399.000000	100.610831
2398.000000	100.611089
2397.000000	100.611352
2396.000000	100.611600
2395.000000	100.611834
2394.000000	100.612071
2393.000000	100.612317
2392.000000	100.612577
2391.000000	100.612850
2390.000000	100.613137
2389.000000	100.613435
2388.000000	100.613743
2387.000000	100.614056
2386.000000	100.614369
2385.000000	100.614676
2384.000000	100.614973
2383.000000	100.615261
2382.000000	100.615541
2381.000000	100.615817
2380.000000	100.616088
2379.000000	100.616351
2378.000000	100.616607
2377.000000	100.616862
2376.000000	100.617120
2375.000000	100.617386
2374.000000	100.617657
2373.000000	100.617932
2372.000000	100.618207
2371.000000	100.618482
2370.000000	100.618754
2369.000000	100.619025
2368.000000	100.619293
2367.000000	100.619555
2366.000000	100.619809
2365.000000	100.620051
2364.000000	100.620282
2363.000000	100.620502
2362.000000	100.620713
2361.000000	100.620913
2360.000000	100.621103
2359.000000	100.621284
2358.000000	100.621455
2357.000000	100.621611
2356.000000	100.621742
2355.000000	100.621854
2354.000000	100.621971
2353.000000	100.622110
2352.000000	100.622243
2351.000000	100.622299
2350.000000	100.622276
2349.000000	100.622268
2348.000000	100.622375
2347.000000	100.622572
2346.000000	100.622646
2345.000000	100.622477
2344.000000	100.622129
2343.000000	100.621815
2342.000000	100.621589
2341.000000	100.621322
2340.000000	100.620989
2339.000000	100.620707
2338.000000	100.620617
2337.000000	100.620695
2336.000000	100.620840
2335.000000	100.620926
2334.000000	100.620932
2333.000000	100.620842
2332.000000	100.620716
2331.000000	100.620489
2330.000000	100.620167
2329.000000	100.619745
2328.000000	100.619345
2327.000000	100.619062
2326.000000	100.618760
2325.000000	100.618253
2324.000000	100.617490
2323.000000	100.616762
2322.000000	100.616363
2321.000000	100.616232
2320.000000	100.616082
2319.000000	100.615704
2318.000000	100.615298
2317.000000	100.615059
2316.000000	100.614992
2315.000000	100.614833
2314.000000	100.614499
2313.000000	100.614072
2312.000000	100.613724
2311.000000	100.613428
2310.000000	100.613119
2309.000000	100.612810
2308.000000	100.612666
2307.000000	100.612773
2306.000000	100.613006
2305.000000	100.613009
2304.000000	100.612516
2303.000000	100.611575
2302.000000	100.610670
2301.000000	100.610305
2300.000000	100.610616
2299.000000	100.611280
2298.000000	100.611844
2297.000000	100.612129
2296.000000	100.612270
2295.000000	100.612412
2294.000000	100.612519
2293.000000	100.612452
2292.000000	100.612163
2291.000000	100.611731
2290.000000	100.611201
2289.000000	100.610524
2288.000000	100.609689
2287.000000	100.608889
2286.000000	100.608437
2285.000000	100.608497
2284.000000	100.608932
2283.000000	100.609400
2282.000000	100.609627
2281.000000	100.609568
2280.000000	100.609338
2279.000000	100.609091
2278.000000	100.608930
2277.000000	100.608837
2276.000000	100.608681
2275.000000	100.608328
2274.000000	100.607803
2273.000000	100.607314
2272.000000	100.607051
2271.000000	100.606987
2270.000000	100.606910
2269.000000	100.606653
2268.000000	100.606248
2267.000000	100.605850
2266.000000	100.605550
2265.000000	100.605318
2264.000000	100.605097
2263.000000	100.604880
2262.000000	100.604682
2261.000000	100.604504
2260.000000	100.604357
2259.000000	100.604268
2258.000000	100.604219
2257.000000	100.604097
2256.000000	100.603791
2255.000000	100.603308
2254.000000	100.602757
2253.000000	100.602243
2252.000000	100.601819
2251.000000	100.601568
2250.000000	100.601595
2249.000000	100.601901
2248.000000	100.602279
2247.000000	100.602448
2246.000000	100.602289
2245.000000	100.601900
2244.000000	100.601447
2243.000000	100.600995
2242.000000	100.600547
2241.000000	100.600178
2240.000000	100.600003
2239.000000	100.600012
2238.000000	100.600014
2237.000000	100.599850
2236.000000	100.599621
2235.000000	100.599616
2234.000000	100.599979
2233.000000	100.600533
2232.000000	100.600948
2231.000000	100.601053
2230.000000	100.600894
2229.000000	100.600539
2228.000000	100.599985
2227.000000	100.599350
2226.000000	100.598971
2225.000000	100.599108
2224.000000	100.599648
2223.000000	100.600198
2222.000000	100.600483
2221.000000	100.600517
2220.000000	100.600385
2219.000000	100.600045
2218.000000	100.599422
2217.000000	100.598588
2216.000000	100.597770
2215.000000	100.597248
2214.000000	100.597216
2213.000000	100.597667
2212.000000	100.598313
2211.000000	100.598765
2210.000000	100.598876
2209.000000	100.598820
2208.000000	100.598832
2207.000000	100.598937
2206.000000	100.599000
2205.000000	100.598964
2204.000000	100.598894
2203.000000	100.598821
2202.000000	100.598667
2201.000000	100.598380
2200.000000	100.598063
2199.000000	100.597925
2198.000000	100.598103
2197.000000	100.598565
2196.000000	100.599164
2195.000000	100.599744
2194.000000	100.600208
2193.000000	100.600493
2192.000000	100.600563
2191.000000	100.600464
2190.000000	100.600383
2189.000000	100.600587
2188.000000	100.601228
2187.000000	100.602221
2186.000000	100.603288
2185.000000	100.604120
2184.000000	100.604582
2183.000000	100.604753
2182.000000	100.604831
2181.000000	100.605000
2180.000000	100.605339
2179.000000	100.605861
2178.000000	100.606525
2177.000000	100.607226
2176.000000	100.607853
2175.000000	100.608402
2174.000000	100.608989
2173.000000	100.609695
2172.000000	100.610461
2171.000000	100.611144
2170.000000	100.611678
2169.000000	100.612105
2168.000000	100.612498
2167.000000	100.612920
2166.000000	100.613428
2165.000000	100.614043
2164.000000	100.614692
2163.000000	100.615236
2162.000000	100.615626
2161.000000	100.615941
2160.000000	100.616287
2159.000000	100.616688
2158.000000	100.617114
2157.000000	100.617547
2156.000000	100.617986
2155.000000	100.618421
2154.000000	100.618854
2153.000000	100.619305
2152.000000	100.619784
2151.000000	100.620250
2150.000000	100.620643
2149.000000	100.620941
2148.000000	100.621176
2147.000000	100.621418
2146.000000	100.621727
2145.000000	100.622134
2144.000000	100.622612
2143.000000	100.623062
2142.000000	100.623400
2141.000000	100.623652
2140.000000	100.623929
2139.000000	100.624263
2138.000000	100.624561
2137.000000	100.624742
2136.000000	100.624843
2135.000000	100.624929
2134.000000	100.625010
2133.000000	100.625095
2132.000000	100.625240
2131.000000	100.625468
2130.000000	100.625717
2129.000000	100.625920
2128.000000	100.626076
2127.000000	100.626195
2126.000000	100.626296
2125.000000	100.626527
2124.000000	100.627138
2123.000000	100.628212
2122.000000	100.629456
2121.000000	100.630389
2120.000000	100.630775
2119.000000	100.630790
2118.000000	100.630887
2117.000000	100.631406
2116.000000	100.632255
2115.000000	100.632912
2114.000000	100.632883
2113.000000	100.632211
2112.000000	100.631519
2111.000000	100.631391
2110.000000	100.631800
2109.000000	100.632270
2108.000000	100.632483
2107.000000	100.632566
2106.000000	100.632864
2105.000000	100.633656
2104.000000	100.635002
2103.000000	100.636598
2102.000000	100.637926
2101.000000	100.638793
2100.000000	100.639550
2099.000000	100.640516
2098.000000	100.641327
2097.000000	100.641344
2096.000000	100.640635
2095.000000	100.640081
2094.000000	100.640301
2093.000000	100.640921
2092.000000	100.641211
2091.000000	100.641125
2090.000000	100.641322
2089.000000	100.642293
2088.000000	100.643896
2087.000000	100.645653
2086.000000	100.647122
2085.000000	100.647951
2084.000000	100.647991
2083.000000	100.647515
2082.000000	100.647005
2081.000000	100.646615
2080.000000	100.646098
2079.000000	100.645334
2078.000000	100.644621
2077.000000	100.644247
2076.000000	100.644053
2075.000000	100.643746
2074.000000	100.643449
2073.000000	100.643588
2072.000000	100.644316
2071.000000	100.645273
2070.000000	100.645906
2069.000000	100.645928
2068.000000	100.645424
2067.000000	100.644727
2066.000000	100.644233
2065.000000	100.644200
2064.000000	100.644639
2063.000000	100.645356
2062.000000	100.646070
2061.000000	100.646506
2060.000000	100.646526
2059.000000	100.646247
2058.000000	100.645955
2057.000000	100.645803
2056.000000	100.645655
2055.000000	100.645332
2054.000000	100.644897
2053.000000	100.644549
2052.000000	100.644325
2051.000000	100.644088
2050.000000	100.643764
2049.000000	100.643406
2048.000000	100.643034
2047.000000	100.642582
2046.000000	100.642015
2045.000000	100.641404
2044.000000	100.640845
2043.000000	100.640393
2042.000000	100.640054
2041.000000	100.639782
2040.000000	100.639498
2039.000000	100.639131
2038.000000	100.638684
2037.000000	100.638209
2036.000000	100.637771
2035.000000	100.637381
2034.000000	100.636999
2033.000000	100.636600
2032.000000	100.636203
2031.000000	100.635829
2030.000000	100.635463
2029.000000	100.635068
2028.000000	100.634618
2027.000000	100.634112
2026.000000	100.633573
2025.000000	100.633023
2024.000000	100.632475
2023.000000	100.631928
2022.000000	100.631366
2021.000000	100.630770
2020.000000	100.630141
2019.000000	100.629483
2018.000000	100.628772
2017.000000	100.628024
2016.000000	100.627358
2015.000000	100.626907
2014.000000	100.626644
2013.000000	100.626365
2012.000000	100.625910
2011.000000	100.625326
2010.000000	100.624775
2009.000000	100.624335
2008.000000	100.623929
2007.000000	100.623404
2006.000000	100.622659
2005.000000	100.621746
2004.000000	100.620865
2003.000000	100.620169
2002.000000	100.619647
2001.000000	100.619259
2000.000000	100.619130
1999.000000	100.619358
1998.000000	100.619665
1997.000000	100.619562
1996.000000	100.618914
1995.000000	100.618056
1994.000000	100.617229
1993.000000	100.616278
1992.000000	100.615127
1991.000000	100.614145
1990.000000	100.613681
1989.000000	100.613566
1988.000000	100.613364
1987.000000	100.612850
1986.000000	100.611961
1985.000000	100.610569
1984.000000	100.608761
1983.000000	100.607198
1982.000000	100.606677
1981.000000	100.607304
1980.000000	100.608472
1979.000000	100.609634
1978.000000	100.610733
1977.000000	100.611757
1976.000000	100.612365
1975.000000	100.612226
1974.000000	100.611434
1973.000000	100.610368
1972.000000	100.609346
1971.000000	100.608600
1970.000000	100.608378
1969.000000	100.608721
1968.000000	100.609177
1967.000000	100.609094
1966.000000	100.608332
1965.000000	100.607424
1964.000000	100.606976
1963.000000	100.607133
1962.000000	100.607655
1961.000000	100.608240
1960.000000	100.608685
1959.000000	100.608834
1958.000000	100.608562
1957.000000	100.607830
1956.000000	100.606714
1955.000000	100.605429
1954.000000	100.604347
1953.000000	100.603816
1952.000000	100.603824
1951.000000	100.603911
1950.000000	100.603548
1949.000000	100.602672
1948.000000	100.601695
1947.000000	100.601026
1946.000000	100.600668
1945.000000	100.600340
1944.000000	100.599838
1943.000000	100.599191
1942.000000	100.598521
1941.000000	100.597871
1940.000000	100.597178
1939.000000	100.596364
1938.000000	100.595390
1937.000000	100.594231
1936.000000	100.592881
1935.000000	100.591459
1934.000000	100.590244
1933.000000	100.589484
1932.000000	100.589084
1931.000000	100.588549
1930.000000	100.587428
1929.000000	100.585772
1928.000000	100.584059
1927.000000	100.582680
1926.000000	100.581665
1925.000000	100.580955
1924.000000	100.580615
1923.000000	100.580526
1922.000000	100.580124
1921.000000	100.578829
1920.000000	100.576608
1919.000000	100.573975
1918.000000	100.571538
1917.000000	100.569640
1916.000000	100.568389
1915.000000	100.567644
1914.000000	100.566872
1913.000000	100.565304
1912.000000	100.562541
1911.000000	100.558997
1910.000000	100.555552
1909.000000	100.552790
1908.000000	100.550859
1907.000000	100.549921
1906.000000	100.550156
1905.000000	100.551226
1904.000000	100.552075
1903.000000	100.551652
1902.000000	100.549625
1901.000000	100.546279
1900.000000	100.542181
1899.000000	100.538136
1898.000000	100.535053
1897.000000	100.533295
1896.000000	100.532074
1895.000000	100.529998
1894.000000	100.526525
1893.000000	100.522518
1892.000000	100.519329
1891.000000	100.517763
1890.000000	100.517642
1889.000000	100.517929
1888.000000	100.517609
1887.000000	100.516377
1886.000000	100.514568
1885.000000	100.512843
1884.000000	100.511746
1883.000000	100.511474
1882.000000	100.511839
1881.000000	100.512235
1880.000000	100.511982
1879.000000	100.510940
1878.000000	100.509543
1877.000000	100.508201
1876.000000	100.507000
1875.000000	100.506189
1874.000000	100.506454
1873.000000	100.508130
1872.000000	100.510454
1871.000000	100.512050
1870.000000	100.511923
1869.000000	100.509931
1868.000000	100.507062
1867.000000	100.505212
1866.000000	100.505704
1865.000000	100.508354
1864.000000	100.511948
1863.000000	100.515230
1862.000000	100.517737
1861.000000	100.519478
1860.000000	100.520131
1859.000000	100.519495
1858.000000	100.518663
1857.000000	100.519579
1856.000000	100.523049
1855.000000	100.527953
1854.000000	100.532625
1853.000000	100.536423
1852.000000	100.539788
1851.000000	100.543382
1850.000000	100.547298
1849.000000	100.550682
1848.000000	100.552023
1847.000000	100.550385
1846.000000	100.546545
1845.000000	100.542894
1844.000000	100.541500
1843.000000	100.542338
1842.000000	100.544296
1841.000000	100.546663
1840.000000	100.549181
1839.000000	100.551422
1838.000000	100.553111
1837.000000	100.554916
1836.000000	100.557518
1835.000000	100.560016
1834.000000	100.560695
1833.000000	100.559277
1832.000000	100.557301
1831.000000	100.556198
1830.000000	100.555618
1829.000000	100.554693
1828.000000	100.553814
1827.000000	100.553447
1826.000000	100.553415
1825.000000	100.553473
1824.000000	100.553451
1823.000000	100.553191
1822.000000	100.552518
1821.000000	100.551540
1820.000000	100.550683
1819.000000	100.550302
1818.000000	100.550656
1817.000000	100.551957
1816.000000	100.553864
1815.000000	100.555314
1814.000000	100.555464
1813.000000	100.554659
1812.000000	100.554025
1811.000000	100.553963
1810.000000	100.553681
1809.000000	100.552349
1808.000000	100.550067
1807.000000	100.547631
1806.000000	100.545895
1805.000000	100.545517
1804.000000	100.546769
1803.000000	100.549126
1802.000000	100.551222
1801.000000	100.551850
1800.000000	100.551223
1799.000000	100.550562
1798.000000	100.550522
1797.000000	100.550760
1796.000000	100.550847
1795.000000	100.550960
1794.000000	100.551671
1793.000000	100.553230
1792.000000	100.555054
1791.000000	100.556370
1790.000000	100.557088
1789.000000	100.557509
1788.000000	100.558234
1787.000000	100.559885
1786.000000	100.562312
1785.000000	100.564335
1784.000000	100.564833
1783.000000	100.564059
1782.000000	100.563512
1781.000000	100.564684
1780.000000	100.567818
1779.000000	100.571642
1778.000000	100.574645
1777.000000	100.576318
1776.000000	100.577179
1775.000000	100.578004
1774.000000	100.579366
1773.000000	100.581484
1772.000000	100.583815
1771.000000	100.585765
1770.000000	100.587408
1769.000000	100.588841
1768.000000	100.590527
1767.000000	100.592804
1766.000000	100.595165
1765.000000	100.596966
1764.000000	100.597977
1763.000000	100.598122
1762.000000	100.597602
1761.000000	100.597735
1760.000000	100.600034
1759.000000	100.604046
1758.000000	100.608027
1757.000000	100.610965
1756.000000	100.613418
1755.000000	100.616333
1754.000000	100.619658
1753.000000	100.623068
1752.000000	100.626583
1751.000000	100.629500
1750.000000	100.630643
1749.000000	100.630663
1748.000000	100.631667
1747.000000	100.634462
1746.000000	100.637638
1745.000000	100.639647
1744.000000	100.640774
1743.000000	100.642498
1742.000000	100.645841
1741.000000	100.650684
1740.000000	100.655519
1739.000000	100.657632
1738.000000	100.655320
1737.000000	100.649212
1736.000000	100.641784
1735.000000	100.637162
1734.000000	100.637256
1733.000000	100.639129
1732.000000	100.640631
1731.000000	100.641175
1730.000000	100.640562
1729.000000	100.638970
1728.000000	100.637112
1727.000000	100.635775
1726.000000	100.634803
1725.000000	100.633142
1724.000000	100.630174
1723.000000	100.626587
1722.000000	100.623529
1721.000000	100.621135
1720.000000	100.618671
1719.000000	100.615593
1718.000000	100.612051
1717.000000	100.609200
1716.000000	100.608670
1715.000000	100.610175
1714.000000	100.611541
1713.000000	100.610980
1712.000000	100.608247
1711.000000	100.604504
1710.000000	100.601180
1709.000000	100.598759
1708.000000	100.596664
1707.000000	100.594174
1706.000000	100.591167
1705.000000	100.588167
1704.000000	100.585710
1703.000000	100.583660
1702.000000	100.581617
1701.000000	100.579366
1700.000000	100.576619
1699.000000	100.573650
1698.000000	100.571020
1697.000000	100.568697
1696.000000	100.566525
1695.000000	100.564403
1694.000000	100.562260
1693.000000	100.560057
1692.000000	100.557792
1691.000000	100.555484
1690.000000	100.553159
1689.000000	100.550849
1688.000000	100.548581
1687.000000	100.546372
1686.000000	100.544216
1685.000000	100.542042
1684.000000	100.539726
1683.000000	100.537359
1682.000000	100.535181
1681.000000	100.533058
1680.000000	100.530798
1679.000000	100.528462
1678.000000	100.526226
1677.000000	100.524157
1676.000000	100.522188
1675.000000	100.520219
1674.000000	100.518248
1673.000000	100.516367
1672.000000	100.514627
1671.000000	100.513050
1670.000000	100.511474
1669.000000	100.509570
1668.000000	100.507322
1667.000000	100.504897
1666.000000	100.502316
1665.000000	100.499681
1664.000000	100.497402
1663.000000	100.495984
1662.000000	100.495454
1661.000000	100.495247
1660.000000	100.494815
1659.000000	100.494008
1658.000000	100.492867
1657.000000	100.491331
1656.000000	100.489552
1655.000000	100.488489
1654.000000	100.489733
1653.000000	100.491363
1652.000000	100.490119
1651.000000	100.487292
1650.000000	100.483009
1649.000000	100.477585
1648.000000	100.472095
1647.000000	100.468150
1646.000000	100.466898
1645.000000	100.468011
1644.000000	100.469661
1643.000000	100.470686
1642.000000	100.471047
1641.000000	100.470568
1640.000000	100.469008
1639.000000	100.466833
1638.000000	100.465364
1637.000000	100.466172
1636.000000	100.468837
1635.000000	100.470426
1634.000000	100.469893
1633.000000	100.468178
1632.000000	100.466524
1631.000000	100.466279
1630.000000	100.467459
1629.000000	100.468539
1628.000000	100.468164
1627.000000	100.466600
1626.000000	100.464525
1625.000000	100.461671
1624.000000	100.458188
1623.000000	100.455914
1622.000000	100.456717
1621.000000	100.459954
1620.000000	100.463517
1619.000000	100.466730
1618.000000	100.470332
1617.000000	100.473798
1616.000000	100.475302
1615.000000	100.475277
1614.000000	100.474737
1613.000000	100.473645
1612.000000	100.472966
1611.000000	100.474768
1610.000000	100.480332
1609.000000	100.488788
1608.000000	100.497607
1607.000000	100.504395
1606.000000	100.508272
1605.000000	100.510388
1604.000000	100.513123
1603.000000	100.517856
1602.000000	100.523511
1601.000000	100.528046
1600.000000	100.531108
1599.000000	100.534138
1598.000000	100.538206
1597.000000	100.542792
1596.000000	100.546640
1595.000000	100.549013
1594.000000	100.549947
1593.000000	100.550073
1592.000000	100.550636
1591.000000	100.553064
1590.000000	100.557692
1589.000000	100.563187
1588.000000	100.567844
1587.000000	100.571047
1586.000000	100.573082
1585.000000	100.574250
1584.000000	100.574955
1583.000000	100.576157
1582.000000	100.578730
1581.000000	100.582389
1580.000000	100.585912
1579.000000	100.588440
1578.000000	100.590116
1577.000000	100.591572
1576.000000	100.592930
1575.000000	100.594591
1574.000000	100.597032
1573.000000	100.599303
1572.000000	100.600710
1571.000000	100.601803
1570.000000	100.603570
1569.000000	100.606477
1568.000000	100.610343
1567.000000	100.613914
1566.000000	100.615952
1565.000000	100.616649
1564.000000	100.617209
1563.000000	100.618647
1562.000000	100.621814
1561.000000	100.627805
1560.000000	100.638036
1559.000000	100.644942
1558.000000	100.642521
1557.000000	100.640490
1556.000000	100.639643
1555.000000	100.637576
1554.000000	100.635357
1553.000000	100.634145
1552.000000	100.634004
1551.000000	100.634036
1550.000000	100.633820
1549.000000	100.633842
1548.000000	100.634591
1547.000000	100.635544
1546.000000	100.635747
1545.000000	100.634637
1544.000000	100.632488
1543.000000	100.630130
1542.000000	100.627503
1541.000000	100.623182
1540.000000	100.616562
1539.000000	100.611784
1538.000000	100.611880
1537.000000	100.613277
1536.000000	100.613506
1535.000000	100.613000
1534.000000	100.612330
1533.000000	100.610998
1532.000000	100.609032
1531.000000	100.606869
1530.000000	100.604547
1529.000000	100.602580
1528.000000	100.601139
1527.000000	100.599385
1526.000000	100.596406
1525.000000	100.592634
1524.000000	100.589671
1523.000000	100.588995
1522.000000	100.590387
1521.000000	100.591538
1520.000000	100.591621
1519.000000	100.591815
1518.000000	100.592732
1517.000000	100.593986
1516.000000	100.594445
1515.000000	100.593855
1514.000000	100.592752
1513.000000	100.591541
1512.000000	100.590164
1511.000000	100.588011
1510.000000	100.585219
1509.000000	100.582978
1508.000000	100.582778
1507.000000	100.583401
1506.000000	100.582893
1505.000000	100.582668
1504.000000	100.582352
1503.000000	100.581646
1502.000000	100.581423
1501.000000	100.582086
1500.000000	100.583472
1499.000000	100.584738
1498.000000	100.584488
1497.000000	100.581743
1496.000000	100.577711
1495.000000	100.575347
1494.000000	100.575883
1493.000000	100.578357
1492.000000	100.581750
1491.000000	100.586103
1490.000000	100.591684
1489.000000	100.597495
1488.000000	100.601386
1487.000000	100.601951
1486.000000	100.599972
1485.000000	100.597427
1484.000000	100.595728
1483.000000	100.595090
1482.000000	100.594852
1481.000000	100.594212
1480.000000	100.593033
1479.000000	100.591935
1478.000000	100.591502
1477.000000	100.591537
1476.000000	100.591466
1475.000000	100.591969
1474.000000	100.595196
1473.000000	100.601832
1472.000000	100.609023
1471.000000	100.613962
1470.000000	100.616579
1469.000000	100.617602
1468.000000	100.617207
1467.000000	100.615056
1466.000000	100.611346
1465.000000	100.607586
1464.000000	100.605839
1463.000000	100.606759
1462.000000	100.609144
1461.000000	100.611547
1460.000000	100.613035
1459.000000	100.613161
1458.000000	100.611984
1457.000000	100.609568
1456.000000	100.606571
1455.000000	100.603445
1454.000000	100.599912
1453.000000	100.597001
1452.000000	100.595437
1451.000000	100.594742
1450.000000	100.594227
1449.000000	100.593747
1448.000000	100.592879
1447.000000	100.590893
1446.000000	100.588209
1445.000000	100.586400
1444.000000	100.586693
1443.000000	100.588793
1442.000000	100.591112
1441.000000	100.591998
1440.000000	100.590694
1439.000000	100.587521
1438.000000	100.584019
1437.000000	100.582252
1436.000000	100.582324
1435.000000	100.582068
1434.000000	100.580144
1433.000000	100.577442
1432.000000	100.575346
1431.000000	100.573904
1430.000000	100.572450
1429.000000	100.571700
1428.000000	100.573039
1427.000000	100.576282
1426.000000	100.580060
1425.000000	100.583416
1424.000000	100.585766
1423.000000	100.586340
1422.000000	100.584914
1421.000000	100.582641
1420.000000	100.581699
1419.000000	100.582717
1418.000000	100.584117
1417.000000	100.585179
1416.000000	100.586431
1415.000000	100.588169
1414.000000	100.589788
1413.000000	100.590360
1412.000000	100.589814
1411.000000	100.588967
1410.000000	100.588690
1409.000000	100.589604
1408.000000	100.592066
1407.000000	100.595815
1406.000000	100.599665
1405.000000	100.602276
1404.000000	100.603783
1403.000000	100.605763
1402.000000	100.609426
1401.000000	100.614601
1400.000000	100.619674
1399.000000	100.622485
1398.000000	100.622672
1397.000000	100.622105
1396.000000	100.622554
1395.000000	100.624038
1394.000000	100.625521
1393.000000	100.626654
1392.000000	100.627928
1391.000000	100.629487
1390.000000	100.630813
1389.000000	100.631531
1388.000000	100.632210
1387.000000	100.633729
1386.000000	100.635815
1385.000000	100.637260
1384.000000	100.637683
1383.000000	100.638109
1382.000000	100.639683
1381.000000	100.642249
1380.000000	100.644480
1379.000000	100.645366
1378.000000	100.645201
1377.000000	100.645154
1376.000000	100.646094
1375.000000	100.647918
1374.000000	100.649781
1373.000000	100.650962
1372.000000	100.651328
1371.000000	100.650989
1370.000000	100.650017
1369.000000	100.648580
1368.000000	100.647227
1367.000000	100.646700
1366.000000	100.647296
1365.000000	100.648614
1364.000000	100.649785
1363.000000	100.650086
1362.000000	100.649586
1361.000000	100.649024
1360.000000	100.648974
1359.000000	100.649432
1358.000000	100.650021
1357.000000	100.650291
1356.000000	100.650024
1355.000000	100.649423
1354.000000	100.648949
1353.000000	100.648847
1352.000000	100.648953
1351.000000	100.649029
1350.000000	100.649110
1349.000000	100.649347
1348.000000	100.649617
1347.000000	100.649581
1346.000000	100.649157
1345.000000	100.648713
1344.000000	100.648697
1343.000000	100.649151
1342.000000	100.649683
1341.000000	100.649896
1340.000000	100.649765
1339.000000	100.649456
1338.000000	100.648954
1337.000000	100.648269
1336.000000	100.647856
1335.000000	100.648224
1334.000000	100.649151
1333.000000	100.649781
1332.000000	100.649727
1331.000000	100.649563
1330.000000	100.649933
1329.000000	100.650545
1328.000000	100.650455
1327.000000	100.649146
1326.000000	100.647064
1325.000000	100.645310
1324.000000	100.644938
1323.000000	100.646187
1322.000000	100.648132
1321.000000	100.649442
1320.000000	100.649749
1319.000000	100.650006
1318.000000	100.651114
1317.000000	100.652501
1316.000000	100.652732
1315.000000	100.651197
1314.000000	100.648597
1313.000000	100.645992
1312.000000	100.643840
1311.000000	100.642124
1310.000000	100.640996
1309.000000	100.640891
1308.000000	100.642123
1307.000000	100.644534
1306.000000	100.647484
1305.000000	100.650145
1304.000000	100.652021
1303.000000	100.653276
1302.000000	100.654203
1301.000000	100.654402
1300.000000	100.653231
1299.000000	100.651006
1298.000000	100.649211
1297.000000	100.649012
1296.000000	100.649730
1295.000000	100.649566
1294.000000	100.647697
1293.000000	100.644939
1292.000000	100.642354
1291.000000	100.640151
1290.000000	100.638486
1289.000000	100.638424
1288.000000	100.640888
1287.000000	100.644793
1286.000000	100.647463
1285.000000	100.647443
1284.000000	100.646018
1283.000000	100.645504
1282.000000	100.646588
1281.000000	100.647945
1280.000000	100.648079
1279.000000	100.646915
1278.000000	100.645698
1277.000000	100.645744
1276.000000	100.647144
1275.000000	100.648462
1274.000000	100.648009
1273.000000	100.645624
1272.000000	100.642684
1271.000000	100.640003
1270.000000	100.636483
1269.000000	100.630893
1268.000000	100.624618
1267.000000	100.621565
1266.000000	100.625164
1265.000000	100.635825
1264.000000	100.650564
1263.000000	100.663802
1262.000000	100.669264
1261.000000	100.663641
1260.000000	100.649976
1259.000000	100.636335
1258.000000	100.629153
1257.000000	100.628113
1256.000000	100.628429
1255.000000	100.627015
1254.000000	100.624812
1253.000000	100.623457
1252.000000	100.621912
1251.000000	100.617784
1250.000000	100.610912
1249.000000	100.603969
1248.000000	100.599465
1247.000000	100.597071
1246.000000	100.593890
1245.000000	100.586636
1244.000000	100.573821
1243.000000	100.557256
1242.000000	100.541776
1241.000000	100.531982
1240.000000	100.528070
1239.000000	100.525529
1238.000000	100.519928
1237.000000	100.511402
1236.000000	100.503251
1235.000000	100.496925
1234.000000	100.490443
1233.000000	100.481773
1232.000000	100.471301
1231.000000	100.459801
1230.000000	100.445956
1229.000000	100.427910
1228.000000	100.406195
1227.000000	100.382944
1226.000000	100.358484
1225.000000	100.330894
1224.000000	100.299404
1223.000000	100.266368
1222.000000	100.234796
1221.000000	100.205184
1220.000000	100.175745
1219.000000	100.144331
1218.000000	100.108708
1217.000000	100.066362
1216.000000	100.016553
1215.000000	99.962757
1214.000000	99.910752
1213.000000	99.863023
1212.000000	99.816593
1211.000000	99.767690
1210.000000	99.717255
1209.000000	99.669817
1208.000000	99.627188
1207.000000	99.585578
1206.000000	99.540169
1205.000000	99.490788
1204.000000	99.440725
1203.000000	99.390820
1202.000000	99.338065
1201.000000	99.280967
1200.000000	99.223316
1199.000000	99.170158
1198.000000	99.121559
1197.000000	99.073231
1196.000000	99.022805
1195.000000	98.972873
1194.000000	98.927515
1193.000000	98.887597
1192.000000	98.849789
1191.000000	98.808989
1190.000000	98.761845
1189.000000	98.709045
1188.000000	98.654016
1187.000000	98.598806
1186.000000	98.542270
1185.000000	98.483197
1184.000000	98.423315
1183.000000	98.364908
1182.000000	98.306844
1181.000000	98.245927
1180.000000	98.181749
1179.000000	98.117301
1178.000000	98.054619
1177.000000	97.992208
1176.000000	97.926950
1175.000000	97.856527
1174.000000	97.780186
1173.000000	97.699515
1172.000000	97.618615
1171.000000	97.541494
1170.000000	97.468942
1169.000000	97.399252
1168.000000	97.331377
1167.000000	97.265896
1166.000000	97.204691
1165.000000	97.152541
1164.000000	97.117604
1163.000000	97.106565
1162.000000	97.118916
1161.000000	97.147323
1160.000000	97.181820
1159.000000	97.211872
1158.000000	97.228268
1157.000000	97.227513
1156.000000	97.212580
1155.000000	97.186366
1154.000000	97.147029
1153.000000	97.093167
1152.000000	97.030238
1151.000000	96.966769
1150.000000	96.906080
1149.000000	96.846686
1148.000000	96.788919
1147.000000	96.735305
1146.000000	96.685517
1145.000000	96.636659
1144.000000	96.587938
1143.000000	96.539908
1142.000000	96.490138
1141.000000	96.435169
1140.000000	96.375956
1139.000000	96.316180
1138.000000	96.256294
1137.000000	96.194766
1136.000000	96.133705
1135.000000	96.076612
1134.000000	96.021257
1133.000000	95.961568
1132.000000	95.896429
1131.000000	95.830291
1130.000000	95.765370
1129.000000	95.699883
1128.000000	95.634126
1127.000000	95.571594
1126.000000	95.513244
1125.000000	95.456338
1124.000000	95.398981
1123.000000	95.340232
1122.000000	95.276875
1121.000000	95.206764
1120.000000	95.134516
1119.000000	95.066727
1118.000000	95.002433
1117.000000	94.935849
1116.000000	94.867129
1115.000000	94.801832
1114.000000	94.740816
1113.000000	94.680379
1112.000000	94.621881
1111.000000	94.570448
1110.000000	94.523526
1109.000000	94.471742
1108.000000	94.413014
1107.000000	94.355286
1106.000000	94.302827
1105.000000	94.249981
1104.000000	94.191576
1103.000000	94.130482
1102.000000	94.071597
1101.000000	94.016529
1100.000000	93.966315
1099.000000	93.921244
1098.000000	93.876336
1097.000000	93.825520
1096.000000	93.771936
1095.000000	93.725447
1094.000000	93.688737
1093.000000	93.654372
1092.000000	93.616305
1091.000000	93.575343
1090.000000	93.533320
1089.000000	93.492018
1088.000000	93.458120
1087.000000	93.437876
1086.000000	93.424975
1085.000000	93.404324
1084.000000	93.369989
1083.000000	93.330114
1082.000000	93.293772
1081.000000	93.263103
1080.000000	93.238399
1079.000000	93.218640
1078.000000	93.195388
1077.000000	93.158579
1076.000000	93.110753
1075.000000	93.064117
1074.000000	93.021181
1073.000000	92.970241
1072.000000	92.902709
1071.000000	92.822512
1070.000000	92.735184
1069.000000	92.639342
1068.000000	92.533294
1067.000000	92.419194
1066.000000	92.296389
1065.000000	92.161498
1064.000000	92.019509
1063.000000	91.884228
1062.000000	91.762710
1061.000000	91.649217
1060.000000	91.538660
1059.000000	91.434856
1058.000000	91.340346
1057.000000	91.248280
1056.000000	91.150043
1055.000000	91.043074
1054.000000	90.928234
1053.000000	90.808212
1052.000000	90.690314
1051.000000	90.579652
1050.000000	90.467064
1049.000000	90.337076
1048.000000	90.190196
1047.000000	90.042594
1046.000000	89.901598
1045.000000	89.757037
1044.000000	89.599995
1043.000000	89.436103
1042.000000	89.275959
1041.000000	89.123958
1040.000000	88.980755
1039.000000	88.845701
1038.000000	88.713146
1037.000000	88.577434
1036.000000	88.444803
1035.000000	88.329256
1034.000000	88.234415
1033.000000	88.150907
1032.000000	88.072720
1031.000000	88.002824
1030.000000	87.940815
1029.000000	87.879678
1028.000000	87.818479
1027.000000	87.764835
1026.000000	87.721107
1025.000000	87.680824
1024.000000	87.641461
1023.000000	87.607684
1022.000000	87.579259
1021.000000	87.548971
1020.000000	87.515048
1019.000000	87.482463
1018.000000	87.449676
1017.000000	87.407805
1016.000000	87.355673
1015.000000	87.302509
1014.000000	87.253328
1013.000000	87.204946
1012.000000	87.158370
1011.000000	87.121039
1010.000000	87.093870
1009.000000	87.069285
1008.000000	87.044260
1007.000000	87.022324
1006.000000	87.001486
1005.000000	86.974846
1004.000000	86.945520
1003.000000	86.926447
1002.000000	86.922503
1001.000000	86.926193
1000.000000	86.932632
999.000000	86.944626
998.000000	86.960919
997.000000	86.974445
996.000000	86.985535
995.000000	87.002939
994.000000	87.028782
993.000000	87.055839
992.000000	87.081959
991.000000	87.113646
990.000000	87.153410
989.000000	87.197408
988.000000	87.247112
987.000000	87.308864
986.000000	87.380044
985.000000	87.450486
984.000000	87.519874
983.000000	87.598874
982.000000	87.690738
981.000000	87.787302
980.000000	87.886164
979.000000	87.996215
978.000000	88.121856
977.000000	88.256477
976.000000	88.396034
975.000000	88.544881
974.000000	88.702899
973.000000	88.860254
972.000000	89.010814
971.000000	89.159436
970.000000	89.311150
969.000000	89.464231
968.000000	89.618383
967.000000	89.778928
966.000000	89.947863
965.000000	90.119684
964.000000	90.289249
963.000000	90.454712
962.000000	90.610885
961.000000	90.750592
960.000000	90.876179
959.000000	91.000159
958.000000	91.130302
957.000000	91.261984
956.000000	91.388074
955.000000	91.507705
954.000000	91.622399
953.000000	91.731793
952.000000	91.836206
951.000000	91.936371
950.000000	92.028793
949.000000	92.108538
948.000000	92.177629
947.000000	92.243255
946.000000	92.307299
945.000000	92.366060
944.000000	92.420751
943.000000	92.478603
942.000000	92.541779
941.000000	92.604241
940.000000	92.661430
939.000000	92.714375
938.000000	92.763140
937.000000	92.805756
936.000000	92.845895
935.000000	92.892299
934.000000	92.947422
933.000000	93.004521
932.000000	93.058051
931.000000	93.108779
930.000000	93.157474
929.000000	93.202904
928.000000	93.248341
927.000000	93.300933
926.000000	93.361481
925.000000	93.422574
924.000000	93.478967
923.000000	93.531973
922.000000	93.582144
921.000000	93.626408
920.000000	93.664747
919.000000	93.701475
918.000000	93.737444
917.000000	93.768815
916.000000	93.795690
915.000000	93.824309
914.000000	93.858935
913.000000	93.899475
912.000000	93.948162
911.000000	94.009641
910.000000	94.082864
909.000000	94.162140
908.000000	94.248189
907.000000	94.348819
906.000000	94.466542
905.000000	94.594771
904.000000	94.728163
903.000000	94.867371
902.000000	95.011482
901.000000	95.155548
900.000000	95.298286
899.000000	95.442936
898.000000	95.587920
897.000000	95.725974
896.000000	95.855268
895.000000	95.981613
894.000000	96.106046
893.000000	96.220243
892.000000	96.320008
891.000000	96.414857
890.000000	96.517118
889.000000	96.627101
888.000000	96.735597
887.000000	96.836400
886.000000	96.930307
885.000000	97.020127
884.000000	97.107131
883.000000	97.190752
882.000000	97.268465
881.000000	97.338203
880.000000	97.403480
879.000000	97.473170
878.000000	97.553018
877.000000	97.639422
876.000000	97.723958
875.000000	97.802077
874.000000	97.876266
873.000000	97.952972
872.000000	98.037075
871.000000	98.127082
870.000000	98.215817
869.000000	98.297993
868.000000	98.375902
867.000000	98.455218
866.000000	98.537321
865.000000	98.619388
864.000000	98.699803
863.000000	98.778705
862.000000	98.854896
861.000000	98.927074
860.000000	98.996754
859.000000	99.064884
858.000000	99.126971
857.000000	99.177464
856.000000	99.218291
855.000000	99.257088
854.000000	99.296786
853.000000	99.332999
852.000000	99.362876
851.000000	99.390709
850.000000	99.422492
849.000000	99.459182
848.000000	99.497101
847.000000	99.531177
846.000000	99.556568
845.000000	99.570568
844.000000	99.574125
843.000000	99.569175
842.000000	99.554988
841.000000	99.530393
840.000000	99.498466
839.000000	99.464870
838.000000	99.432568
837.000000	99.402550
836.000000	99.377589
835.000000	99.358362
834.000000	99.336922
833.000000	99.303081
832.000000	99.259599
831.000000	99.223701
830.000000	99.209960
829.000000	99.217166
828.000000	99.234217
827.000000	99.251356
826.000000	99.262460
825.000000	99.265609
824.000000	99.267853
823.000000	99.281606
822.000000	99.308971
821.000000	99.336091
820.000000	99.348680
819.000000	99.346417
818.000000	99.336730
817.000000	99.319878
816.000000	99.286654
815.000000	99.228985
814.000000	99.147412
813.000000	99.047330
812.000000	98.930432
811.000000	98.790358
810.000000	98.615802
809.000000	98.398656
808.000000	98.140062
807.000000	97.847727
806.000000	97.528140
805.000000	97.185859
804.000000	96.832456
803.000000	96.491119
802.000000	96.187858
801.000000	95.940452
800.000000	95.756944
799.000000	95.638176
798.000000	95.578370
797.000000	95.568887
796.000000	95.603784
795.000000	95.676688
794.000000	95.772664
793.000000	95.870929
792.000000	95.957160
791.000000	96.027450
790.000000	96.080234
789.000000	96.110836
788.000000	96.114657
787.000000	96.089767
786.000000	96.035276
785.000000	95.952261
784.000000	95.847220
783.000000	95.730463
782.000000	95.611736
781.000000	95.502457
780.000000	95.420135
779.000000	95.381655
778.000000	95.390660
777.000000	95.437962
776.000000	95.513875
775.000000	95.612706
774.000000	95.726471
773.000000	95.844111
772.000000	95.958361
771.000000	96.065924
770.000000	96.160770
769.000000	96.235257
768.000000	96.288657
767.000000	96.327444
766.000000	96.356571
765.000000	96.377326
764.000000	96.393952
763.000000	96.414473
762.000000	96.443380
761.000000	96.480130
760.000000	96.525235
759.000000	96.579976
758.000000	96.639063
757.000000	96.691912
756.000000	96.734006
755.000000	96.771221
754.000000	96.811948
753.000000	96.860819
752.000000	96.919704
751.000000	96.986473
750.000000	97.050708
749.000000	97.098545
748.000000	97.126338
747.000000	97.146031
746.000000	97.175673
745.000000	97.228066
744.000000	97.307150
743.000000	97.407532
742.000000	97.515649
741.000000	97.617823
740.000000	97.709763
739.000000	97.795149
738.000000	97.876416
737.000000	97.952632
736.000000	98.025412
735.000000	98.099495
734.000000	98.175798
733.000000	98.248985
732.000000	98.312637
731.000000	98.362461
730.000000	98.395635
729.000000	98.413325
728.000000	98.423957
727.000000	98.437996
726.000000	98.458991
725.000000	98.484866
724.000000	98.516822
723.000000	98.559680
722.000000	98.613189
721.000000	98.670248
720.000000	98.725144
719.000000	98.777388
718.000000	98.826394
717.000000	98.869322
716.000000	98.906595
715.000000	98.943854
714.000000	98.985498
713.000000	99.029579
712.000000	99.070208
711.000000	99.102029
710.000000	99.122739
709.000000	99.134563
708.000000	99.142283
707.000000	99.146491
706.000000	99.140741
705.000000	99.119136
704.000000	99.082779
703.000000	99.032546
702.000000	98.959502
701.000000	98.851085
700.000000	98.705569
699.000000	98.534032
698.000000	98.351574
697.000000	98.175864
696.000000	98.031230
695.000000	97.940693
694.000000	97.911320
693.000000	97.935021
692.000000	98.001713
691.000000	98.101550
690.000000	98.216107
689.000000	98.321831
688.000000	98.407584
687.000000	98.479235
686.000000	98.543951
685.000000	98.601140
684.000000	98.651095
683.000000	98.699782
682.000000	98.750695
681.000000	98.801122
680.000000	98.848824
679.000000	98.893556
678.000000	98.930734
677.000000	98.955245
676.000000	98.974791
675.000000	99.007211
674.000000	99.059480
673.000000	99.117209
672.000000	99.158677
671.000000	99.174580
670.000000	99.173491
669.000000	99.178724
668.000000	99.216023
667.000000	99.284220
666.000000	99.353546
665.000000	99.404540
664.000000	99.444010
663.000000	99.486248
662.000000	99.530344
661.000000	99.561748
660.000000	99.575237
659.000000	99.579742
658.000000	99.579181
657.000000	99.566497
656.000000	99.542414
655.000000	99.523003
654.000000	99.519482
653.000000	99.524319
652.000000	99.528429
651.000000	99.539260
650.000000	99.568158
649.000000	99.608853
648.000000	99.641446
647.000000	99.652614
646.000000	99.644595
645.000000	99.631573
644.000000	99.634985
643.000000	99.673876
642.000000	99.746475
641.000000	99.825512
640.000000	99.883074
639.000000	99.916931
638.000000	99.945346
637.000000	99.981396
636.000000	100.021044
635.000000	100.053618
634.000000	100.077912
633.000000	100.108840
632.000000	100.167644
631.000000	100.257427
630.000000	100.346311
629.000000	100.390700
628.000000	100.381016
627.000000	100.354248
626.000000	100.355205
625.000000	100.390829
624.000000	100.436541
623.000000	100.477960
622.000000	100.526485
621.000000	100.596814
620.000000	100.683870
619.000000	100.761222
618.000000	100.796406
617.000000	100.775384
616.000000	100.716550
615.000000	100.656811
614.000000	100.615741
613.000000	100.579497
612.000000	100.532407
611.000000	100.491534
610.000000	100.490400
609.000000	100.533496
608.000000	100.587410
607.000000	100.616137
606.000000	100.612197
605.000000	100.591805
604.000000	100.569986
603.000000	100.546072
602.000000	100.508198
601.000000	100.450988
600.000000	100.390919
599.000000	100.359137
598.000000	100.372833
597.000000	100.419269
596.000000	100.471112
595.000000	100.508817
594.000000	100.526731
593.000000	100.528871
592.000000	100.526032
591.000000	100.529057
590.000000	100.536080
589.000000	100.532324
588.000000	100.509321
587.000000	100.478978
586.000000	100.463581
585.000000	100.474222
584.000000	100.504770
583.000000	100.544243
582.000000	100.589387
581.000000	100.644739
580.000000	100.705934
579.000000	100.742915
578.000000	100.720767
577.000000	100.647561
576.000000	100.584342
575.000000	100.590009
574.000000	100.655563
573.000000	100.718036
572.000000	100.730074
571.000000	100.684674
570.000000	100.592257
569.000000	100.461234
568.000000	100.303114
567.000000	100.140854
566.000000	100.000027
565.000000	99.900658
564.000000	99.856910
563.000000	99.858846
562.000000	99.855732
561.000000	99.796772
560.000000	99.689892
559.000000	99.595307
558.000000	99.560815
557.000000	99.582788
556.000000	99.626213
555.000000	99.645578
554.000000	99.596702
553.000000	99.466237
552.000000	99.290837
551.000000	99.139831
550.000000	99.061132
