PE IR       SUBTECH     SPECTRUM    ASCII       PEDS        4.00        
   -1
BH1 8-2 8 0_1.asc
24/05/15
13:45:50.00
24/05/15
13:47:25.00
Administrator
?品 079 用? Administrator 日期 Wednesday, May 15 2024
550.000000
#HDR
-1
-1
#GR
cm-1
%T
1.0
0.0
4000.000000
-1.000000
3451
8
102.096975
71.436264
#DATA
4000.000000	101.460486
3999.000000	101.456176
3998.000000	101.452416
3997.000000	101.449971
3996.000000	101.448741
3995.000000	101.448286
3994.000000	101.448168
3993.000000	101.447952
3992.000000	101.447250
3991.000000	101.446117
3990.000000	101.445307
3989.000000	101.445765
3988.000000	101.447722
3987.000000	101.450353
3986.000000	101.452509
3985.000000	101.453854
3984.000000	101.455183
3983.000000	101.457446
3982.000000	101.460403
3981.000000	101.462410
3980.000000	101.461894
3979.000000	101.459034
3978.000000	101.455962
3977.000000	101.455114
3976.000000	101.457005
3975.000000	101.459671
3974.000000	101.460355
3973.000000	101.457801
3972.000000	101.453049
3971.000000	101.448392
3970.000000	101.445504
3969.000000	101.444394
3968.000000	101.443844
3967.000000	101.442648
3966.000000	101.440596
3965.000000	101.438627
3964.000000	101.438267
3963.000000	101.440701
3962.000000	101.445869
3961.000000	101.452129
3960.000000	101.457098
3959.000000	101.459245
3958.000000	101.458750
3957.000000	101.456933
3956.000000	101.454835
3955.000000	101.452389
3954.000000	101.448923
3953.000000	101.444289
3952.000000	101.439404
3951.000000	101.435617
3950.000000	101.433555
3949.000000	101.432577
3948.000000	101.431432
3947.000000	101.429531
3946.000000	101.427511
3945.000000	101.426761
3944.000000	101.428459
3943.000000	101.432829
3942.000000	101.438841
3941.000000	101.444589
3940.000000	101.448343
3939.000000	101.449358
3938.000000	101.447706
3937.000000	101.443847
3936.000000	101.438614
3935.000000	101.433543
3934.000000	101.430555
3933.000000	101.430669
3932.000000	101.433148
3931.000000	101.436255
3930.000000	101.438958
3929.000000	101.441341
3928.000000	101.443507
3927.000000	101.444903
3926.000000	101.444881
3925.000000	101.443502
3924.000000	101.441375
3923.000000	101.438924
3922.000000	101.436382
3921.000000	101.434145
3920.000000	101.432567
3919.000000	101.431576
3918.000000	101.430881
3917.000000	101.430474
3916.000000	101.430474
3915.000000	101.430646
3914.000000	101.430566
3913.000000	101.430312
3912.000000	101.430607
3911.000000	101.432222
3910.000000	101.435246
3909.000000	101.438975
3908.000000	101.442315
3907.000000	101.444428
3906.000000	101.445003
3905.000000	101.444268
3904.000000	101.442844
3903.000000	101.441447
3902.000000	101.440705
3901.000000	101.441113
3900.000000	101.442639
3899.000000	101.444443
3898.000000	101.445422
3897.000000	101.445196
3896.000000	101.444408
3895.000000	101.444073
3894.000000	101.444662
3893.000000	101.445981
3892.000000	101.447724
3891.000000	101.449902
3890.000000	101.452085
3889.000000	101.453151
3888.000000	101.452295
3887.000000	101.449844
3886.000000	101.447326
3885.000000	101.446269
3884.000000	101.446626
3883.000000	101.447311
3882.000000	101.447765
3881.000000	101.448261
3880.000000	101.449080
3879.000000	101.449856
3878.000000	101.449921
3877.000000	101.449419
3876.000000	101.449232
3875.000000	101.450045
3874.000000	101.451700
3873.000000	101.453305
3872.000000	101.454172
3871.000000	101.454883
3870.000000	101.456858
3869.000000	101.460152
3868.000000	101.462542
3867.000000	101.462215
3866.000000	101.459638
3865.000000	101.456312
3864.000000	101.452921
3863.000000	101.449197
3862.000000	101.445397
3861.000000	101.442698
3860.000000	101.441865
3859.000000	101.442705
3858.000000	101.444793
3857.000000	101.448420
3856.000000	101.454135
3855.000000	101.460793
3854.000000	101.465073
3853.000000	101.465052
3852.000000	101.461355
3851.000000	101.455249
3850.000000	101.449011
3849.000000	101.444542
3848.000000	101.442032
3847.000000	101.440542
3846.000000	101.439537
3845.000000	101.439631
3844.000000	101.441672
3843.000000	101.445381
3842.000000	101.449129
3841.000000	101.451000
3840.000000	101.449784
3839.000000	101.445545
3838.000000	101.439737
3837.000000	101.434778
3836.000000	101.432442
3835.000000	101.432630
3834.000000	101.433710
3833.000000	101.433734
3832.000000	101.431956
3831.000000	101.429189
3830.000000	101.426370
3829.000000	101.423583
3828.000000	101.420837
3827.000000	101.419367
3826.000000	101.421195
3825.000000	101.427045
3824.000000	101.435109
3823.000000	101.441742
3822.000000	101.444168
3821.000000	101.444146
3820.000000	101.445917
3819.000000	101.449965
3818.000000	101.453645
3817.000000	101.454639
3816.000000	101.452519
3815.000000	101.448411
3814.000000	101.443282
3813.000000	101.438098
3812.000000	101.434567
3811.000000	101.433753
3810.000000	101.434981
3809.000000	101.436481
3808.000000	101.437197
3807.000000	101.437792
3806.000000	101.439106
3805.000000	101.440108
3804.000000	101.439378
3803.000000	101.436943
3802.000000	101.434302
3801.000000	101.433339
3800.000000	101.433293
3799.000000	101.431727
3798.000000	101.428652
3797.000000	101.426356
3796.000000	101.426343
3795.000000	101.427645
3794.000000	101.428307
3793.000000	101.427724
3792.000000	101.427036
3791.000000	101.427533
3790.000000	101.429402
3789.000000	101.431609
3788.000000	101.432657
3787.000000	101.431765
3786.000000	101.429755
3785.000000	101.428594
3784.000000	101.429540
3783.000000	101.431864
3782.000000	101.433697
3781.000000	101.434147
3780.000000	101.434223
3779.000000	101.435479
3778.000000	101.437760
3777.000000	101.439336
3776.000000	101.439220
3775.000000	101.438229
3774.000000	101.437524
3773.000000	101.436900
3772.000000	101.435054
3771.000000	101.431701
3770.000000	101.428948
3769.000000	101.429379
3768.000000	101.432984
3767.000000	101.437638
3766.000000	101.441608
3765.000000	101.444566
3764.000000	101.446640
3763.000000	101.447579
3762.000000	101.447394
3761.000000	101.446916
3760.000000	101.447131
3759.000000	101.448300
3758.000000	101.449776
3757.000000	101.450911
3756.000000	101.451726
3755.000000	101.453054
3754.000000	101.456160
3753.000000	101.461321
3752.000000	101.466048
3751.000000	101.466623
3750.000000	101.462594
3749.000000	101.456564
3748.000000	101.450021
3747.000000	101.442761
3746.000000	101.434875
3745.000000	101.428787
3744.000000	101.428388
3743.000000	101.433070
3742.000000	101.438629
3741.000000	101.444060
3740.000000	101.450295
3739.000000	101.456231
3738.000000	101.458573
3737.000000	101.455495
3736.000000	101.448960
3735.000000	101.442144
3734.000000	101.435339
3733.000000	101.427105
3732.000000	101.418302
3731.000000	101.411588
3730.000000	101.408424
3729.000000	101.408545
3728.000000	101.410600
3727.000000	101.412575
3726.000000	101.412531
3725.000000	101.409506
3724.000000	101.403991
3723.000000	101.397241
3722.000000	101.390414
3721.000000	101.384384
3720.000000	101.380422
3719.000000	101.380284
3718.000000	101.384367
3717.000000	101.390393
3716.000000	101.394403
3715.000000	101.393749
3714.000000	101.389037
3713.000000	101.382832
3712.000000	101.376700
3711.000000	101.369766
3710.000000	101.360208
3709.000000	101.348237
3708.000000	101.336774
3707.000000	101.329603
3706.000000	101.328572
3705.000000	101.331913
3704.000000	101.334543
3703.000000	101.330575
3702.000000	101.318313
3701.000000	101.302559
3700.000000	101.289919
3699.000000	101.283017
3698.000000	101.280183
3697.000000	101.278353
3696.000000	101.275555
3695.000000	101.271855
3694.000000	101.268971
3693.000000	101.268465
3692.000000	101.269107
3691.000000	101.266632
3690.000000	101.258029
3689.000000	101.246457
3688.000000	101.237304
3687.000000	101.230039
3686.000000	101.220483
3685.000000	101.207501
3684.000000	101.193446
3683.000000	101.180286
3682.000000	101.167484
3681.000000	101.154044
3680.000000	101.140773
3679.000000	101.128307
3678.000000	101.114135
3677.000000	101.093812
3676.000000	101.069063
3675.000000	101.050566
3674.000000	101.041333
3673.000000	101.030854
3672.000000	101.009949
3671.000000	100.976932
3670.000000	100.938483
3669.000000	100.905286
3668.000000	100.880696
3667.000000	100.861199
3666.000000	100.843845
3665.000000	100.827127
3664.000000	100.809042
3663.000000	100.787166
3662.000000	100.760557
3661.000000	100.731163
3660.000000	100.702315
3659.000000	100.676043
3658.000000	100.652531
3657.000000	100.631690
3656.000000	100.614370
3655.000000	100.599513
3654.000000	100.584040
3653.000000	100.567615
3652.000000	100.554080
3651.000000	100.545554
3650.000000	100.536589
3649.000000	100.518259
3648.000000	100.489631
3647.000000	100.458444
3646.000000	100.430759
3645.000000	100.406724
3644.000000	100.384065
3643.000000	100.361657
3642.000000	100.338853
3641.000000	100.314698
3640.000000	100.288987
3639.000000	100.263841
3638.000000	100.241734
3637.000000	100.221619
3636.000000	100.199707
3635.000000	100.174651
3634.000000	100.150047
3633.000000	100.129990
3632.000000	100.114748
3631.000000	100.102134
3630.000000	100.090780
3629.000000	100.082544
3628.000000	100.079308
3627.000000	100.077105
3626.000000	100.073062
3625.000000	100.070700
3624.000000	100.073525
3623.000000	100.080409
3622.000000	100.087975
3621.000000	100.095138
3620.000000	100.105035
3619.000000	100.121908
3618.000000	100.145091
3617.000000	100.167969
3616.000000	100.184698
3615.000000	100.195555
3614.000000	100.206642
3613.000000	100.224554
3612.000000	100.249782
3611.000000	100.276122
3610.000000	100.297355
3609.000000	100.313148
3608.000000	100.328522
3607.000000	100.347204
3606.000000	100.366950
3605.000000	100.383268
3604.000000	100.395047
3603.000000	100.404975
3602.000000	100.415507
3601.000000	100.424954
3600.000000	100.429441
3599.000000	100.428518
3598.000000	100.427311
3597.000000	100.431506
3596.000000	100.441423
3595.000000	100.452359
3594.000000	100.461323
3593.000000	100.469927
3592.000000	100.480473
3591.000000	100.491775
3590.000000	100.499624
3589.000000	100.500825
3588.000000	100.496825
3587.000000	100.492281
3586.000000	100.488686
3585.000000	100.483771
3584.000000	100.477078
3583.000000	100.471446
3582.000000	100.468994
3581.000000	100.467981
3580.000000	100.464556
3579.000000	100.457312
3578.000000	100.449323
3577.000000	100.444979
3576.000000	100.445233
3575.000000	100.446569
3574.000000	100.444614
3573.000000	100.438348
3572.000000	100.430355
3571.000000	100.423931
3570.000000	100.420190
3569.000000	100.417365
3568.000000	100.412435
3567.000000	100.404492
3566.000000	100.395821
3565.000000	100.389031
3564.000000	100.384958
3563.000000	100.382522
3562.000000	100.379339
3561.000000	100.373457
3560.000000	100.365353
3559.000000	100.358128
3558.000000	100.355132
3557.000000	100.357163
3556.000000	100.361494
3555.000000	100.363518
3554.000000	100.359960
3553.000000	100.351493
3552.000000	100.341900
3551.000000	100.334261
3550.000000	100.328454
3549.000000	100.322624
3548.000000	100.315884
3547.000000	100.309279
3546.000000	100.304632
3545.000000	100.303111
3544.000000	100.304833
3543.000000	100.309104
3542.000000	100.314382
3541.000000	100.318540
3540.000000	100.319842
3539.000000	100.318094
3538.000000	100.314618
3537.000000	100.311209
3536.000000	100.309207
3535.000000	100.309305
3534.000000	100.311745
3533.000000	100.316030
3532.000000	100.320767
3531.000000	100.324192
3530.000000	100.325497
3529.000000	100.325438
3528.000000	100.325399
3527.000000	100.325865
3526.000000	100.326105
3525.000000	100.325312
3524.000000	100.323723
3523.000000	100.322468
3522.000000	100.322443
3521.000000	100.323574
3520.000000	100.325185
3519.000000	100.326930
3518.000000	100.329165
3517.000000	100.332415
3516.000000	100.336702
3515.000000	100.341370
3514.000000	100.345534
3513.000000	100.348580
3512.000000	100.350436
3511.000000	100.351506
3510.000000	100.352366
3509.000000	100.353140
3508.000000	100.353226
3507.000000	100.351852
3506.000000	100.348973
3505.000000	100.345524
3504.000000	100.342860
3503.000000	100.341930
3502.000000	100.342743
3501.000000	100.344368
3500.000000	100.345354
3499.000000	100.344421
3498.000000	100.341304
3497.000000	100.337246
3496.000000	100.334364
3495.000000	100.333837
3494.000000	100.334651
3493.000000	100.334342
3492.000000	100.331349
3491.000000	100.326668
3490.000000	100.323118
3489.000000	100.322711
3488.000000	100.324979
3487.000000	100.327796
3486.000000	100.329649
3485.000000	100.330716
3484.000000	100.331834
3483.000000	100.333086
3482.000000	100.333657
3481.000000	100.332733
3480.000000	100.330205
3479.000000	100.326674
3478.000000	100.323114
3477.000000	100.320462
3476.000000	100.319213
3475.000000	100.319220
3474.000000	100.319816
3473.000000	100.320131
3472.000000	100.319406
3471.000000	100.317320
3470.000000	100.314161
3469.000000	100.310550
3468.000000	100.306879
3467.000000	100.303181
3466.000000	100.299623
3465.000000	100.296799
3464.000000	100.295149
3463.000000	100.294183
3462.000000	100.292720
3461.000000	100.290085
3460.000000	100.286754
3459.000000	100.283631
3458.000000	100.280897
3457.000000	100.277983
3456.000000	100.274583
3455.000000	100.271300
3454.000000	100.269146
3453.000000	100.268491
3452.000000	100.268635
3451.000000	100.268189
3450.000000	100.266092
3449.000000	100.262298
3448.000000	100.257766
3447.000000	100.253759
3446.000000	100.250791
3445.000000	100.248408
3444.000000	100.245947
3443.000000	100.243272
3442.000000	100.240732
3441.000000	100.238548
3440.000000	100.236468
3439.000000	100.234055
3438.000000	100.231238
3437.000000	100.228416
3436.000000	100.226021
3435.000000	100.224035
3434.000000	100.222009
3433.000000	100.219502
3432.000000	100.216535
3431.000000	100.213636
3430.000000	100.211472
3429.000000	100.210357
3428.000000	100.210024
3427.000000	100.209813
3426.000000	100.209160
3425.000000	100.207925
3424.000000	100.206254
3423.000000	100.204301
3422.000000	100.202232
3421.000000	100.200388
3420.000000	100.199118
3419.000000	100.198342
3418.000000	100.197501
3417.000000	100.196122
3416.000000	100.194368
3415.000000	100.192856
3414.000000	100.191929
3413.000000	100.191183
3412.000000	100.189825
3411.000000	100.187557
3410.000000	100.185132
3409.000000	100.183872
3408.000000	100.184552
3407.000000	100.186650
3406.000000	100.188589
3405.000000	100.188942
3404.000000	100.187315
3403.000000	100.184369
3402.000000	100.181462
3401.000000	100.180018
3400.000000	100.180803
3399.000000	100.183363
3398.000000	100.186139
3397.000000	100.187597
3396.000000	100.187422
3395.000000	100.186554
3394.000000	100.186239
3393.000000	100.187110
3392.000000	100.189007
3391.000000	100.191343
3390.000000	100.193629
3389.000000	100.195873
3388.000000	100.198495
3387.000000	100.201602
3386.000000	100.204326
3385.000000	100.205225
3384.000000	100.203580
3383.000000	100.200193
3382.000000	100.196769
3381.000000	100.194525
3380.000000	100.193630
3379.000000	100.193776
3378.000000	100.194809
3377.000000	100.196592
3376.000000	100.198568
3375.000000	100.199902
3374.000000	100.200237
3373.000000	100.200216
3372.000000	100.201083
3371.000000	100.203581
3370.000000	100.207144
3369.000000	100.210196
3368.000000	100.211524
3367.000000	100.211561
3366.000000	100.212275
3365.000000	100.215611
3364.000000	100.222031
3363.000000	100.230368
3362.000000	100.238680
3361.000000	100.245259
3360.000000	100.249307
3359.000000	100.251202
3358.000000	100.252214
3357.000000	100.253431
3356.000000	100.254602
3355.000000	100.254527
3354.000000	100.252915
3353.000000	100.251374
3352.000000	100.251998
3351.000000	100.255241
3350.000000	100.259681
3349.000000	100.263571
3348.000000	100.266169
3347.000000	100.267650
3346.000000	100.268596
3345.000000	100.269828
3344.000000	100.272038
3343.000000	100.275096
3342.000000	100.278138
3341.000000	100.280768
3340.000000	100.283713
3339.000000	100.287817
3338.000000	100.292794
3337.000000	100.297471
3336.000000	100.301100
3335.000000	100.303888
3334.000000	100.306405
3333.000000	100.309031
3332.000000	100.311958
3331.000000	100.315231
3330.000000	100.318624
3329.000000	100.321750
3328.000000	100.324463
3327.000000	100.326981
3326.000000	100.329504
3325.000000	100.331905
3324.000000	100.333968
3323.000000	100.335845
3322.000000	100.338021
3321.000000	100.340794
3320.000000	100.343908
3319.000000	100.346729
3318.000000	100.348887
3317.000000	100.350604
3316.000000	100.352420
3315.000000	100.354642
3314.000000	100.357141
3313.000000	100.359619
3312.000000	100.361969
3311.000000	100.364325
3310.000000	100.366795
3309.000000	100.369262
3308.000000	100.371498
3307.000000	100.373427
3306.000000	100.375197
3305.000000	100.377104
3304.000000	100.379342
3303.000000	100.381847
3302.000000	100.384343
3301.000000	100.386606
3300.000000	100.388690
3299.000000	100.390823
3298.000000	100.393126
3297.000000	100.395501
3296.000000	100.397800
3295.000000	100.400022
3294.000000	100.402246
3293.000000	100.404468
3292.000000	100.406609
3291.000000	100.408656
3290.000000	100.410680
3289.000000	100.412726
3288.000000	100.414772
3287.000000	100.416805
3286.000000	100.418814
3285.000000	100.420699
3284.000000	100.422313
3283.000000	100.423668
3282.000000	100.425080
3281.000000	100.426921
3280.000000	100.429255
3279.000000	100.431771
3278.000000	100.434087
3277.000000	100.436163
3276.000000	100.438222
3275.000000	100.440418
3274.000000	100.442660
3273.000000	100.444792
3272.000000	100.446845
3271.000000	100.449006
3270.000000	100.451382
3269.000000	100.453873
3268.000000	100.456289
3267.000000	100.458569
3266.000000	100.460811
3265.000000	100.463126
3264.000000	100.465502
3263.000000	100.467785
3262.000000	100.469800
3261.000000	100.471537
3260.000000	100.473273
3259.000000	100.475412
3258.000000	100.478118
3257.000000	100.481100
3256.000000	100.483823
3255.000000	100.486019
3254.000000	100.487839
3253.000000	100.489577
3252.000000	100.491352
3251.000000	100.493157
3250.000000	100.495107
3249.000000	100.497433
3248.000000	100.500248
3247.000000	100.503454
3246.000000	100.506828
3245.000000	100.510114
3244.000000	100.513100
3243.000000	100.515690
3242.000000	100.517941
3241.000000	100.519990
3240.000000	100.521968
3239.000000	100.523999
3238.000000	100.526235
3237.000000	100.528780
3236.000000	100.531560
3235.000000	100.534386
3234.000000	100.537130
3233.000000	100.539823
3232.000000	100.542558
3231.000000	100.545365
3230.000000	100.548201
3229.000000	100.551004
3228.000000	100.553727
3227.000000	100.556345
3226.000000	100.558879
3225.000000	100.561400
3224.000000	100.563989
3223.000000	100.566674
3222.000000	100.569424
3221.000000	100.572195
3220.000000	100.574962
3219.000000	100.577724
3218.000000	100.580488
3217.000000	100.583250
3216.000000	100.586001
3215.000000	100.588737
3214.000000	100.591459
3213.000000	100.594175
3212.000000	100.596893
3211.000000	100.599620
3210.000000	100.602355
3209.000000	100.605093
3208.000000	100.607826
3207.000000	100.610548
3206.000000	100.613258
3205.000000	100.615960
3204.000000	100.618663
3203.000000	100.621378
3202.000000	100.624109
3201.000000	100.626858
3200.000000	100.629618
3199.000000	100.632378
3198.000000	100.635127
3197.000000	100.637861
3196.000000	100.640588
3195.000000	100.643314
3194.000000	100.646046
3193.000000	100.648776
3192.000000	100.651498
3191.000000	100.654205
3190.000000	100.656895
3189.000000	100.659573
3188.000000	100.662237
3187.000000	100.664875
3186.000000	100.667468
3185.000000	100.670010
3184.000000	100.672527
3183.000000	100.675064
3182.000000	100.677651
3181.000000	100.680293
3180.000000	100.682955
3179.000000	100.685549
3178.000000	100.687976
3177.000000	100.690206
3176.000000	100.692332
3175.000000	100.694492
3174.000000	100.696761
3173.000000	100.699130
3172.000000	100.701567
3171.000000	100.704047
3170.000000	100.706564
3169.000000	100.709164
3168.000000	100.711949
3167.000000	100.714933
3166.000000	100.717898
3165.000000	100.720519
3164.000000	100.722684
3163.000000	100.724639
3162.000000	100.726746
3161.000000	100.729131
3160.000000	100.731665
3159.000000	100.734175
3158.000000	100.736591
3157.000000	100.738931
3156.000000	100.741248
3155.000000	100.743615
3154.000000	100.746050
3153.000000	100.748395
3152.000000	100.750403
3151.000000	100.752051
3150.000000	100.753716
3149.000000	100.755827
3148.000000	100.758351
3147.000000	100.760734
3146.000000	100.762561
3145.000000	100.764170
3144.000000	100.766351
3143.000000	100.769437
3142.000000	100.772973
3141.000000	100.776192
3140.000000	100.778815
3139.000000	100.781190
3138.000000	100.783814
3137.000000	100.786873
3136.000000	100.790180
3135.000000	100.793356
3134.000000	100.796059
3133.000000	100.798160
3132.000000	100.799849
3131.000000	100.801551
3130.000000	100.803627
3129.000000	100.806194
3128.000000	100.809170
3127.000000	100.812322
3126.000000	100.815277
3125.000000	100.817649
3124.000000	100.819324
3123.000000	100.820559
3122.000000	100.821740
3121.000000	100.823149
3120.000000	100.825027
3119.000000	100.827648
3118.000000	100.831073
3117.000000	100.834942
3116.000000	100.838739
3115.000000	100.842188
3114.000000	100.845273
3113.000000	100.848109
3112.000000	100.850979
3111.000000	100.854175
3110.000000	100.857406
3109.000000	100.859630
3108.000000	100.860056
3107.000000	100.859250
3106.000000	100.858953
3105.000000	100.860498
3104.000000	100.863771
3103.000000	100.867621
3102.000000	100.870925
3101.000000	100.873334
3100.000000	100.875285
3099.000000	100.877548
3098.000000	100.880523
3097.000000	100.883806
3096.000000	100.886569
3095.000000	100.888370
3094.000000	100.889307
3093.000000	100.889428
3092.000000	100.888564
3091.000000	100.887046
3090.000000	100.886037
3089.000000	100.886539
3088.000000	100.888378
3087.000000	100.890598
3086.000000	100.892767
3085.000000	100.895296
3084.000000	100.898408
3083.000000	100.901501
3082.000000	100.903801
3081.000000	100.905279
3080.000000	100.906652
3079.000000	100.908641
3078.000000	100.911415
3077.000000	100.914559
3076.000000	100.917376
3075.000000	100.919361
3074.000000	100.920603
3073.000000	100.921745
3072.000000	100.923440
3071.000000	100.925791
3070.000000	100.928348
3069.000000	100.930543
3068.000000	100.932055
3067.000000	100.932885
3066.000000	100.933374
3065.000000	100.934178
3064.000000	100.935918
3063.000000	100.938718
3062.000000	100.942070
3061.000000	100.945275
3060.000000	100.948075
3059.000000	100.950596
3058.000000	100.952943
3057.000000	100.955027
3056.000000	100.956730
3055.000000	100.958119
3054.000000	100.959456
3053.000000	100.961033
3052.000000	100.963055
3051.000000	100.965521
3050.000000	100.968135
3049.000000	100.970474
3048.000000	100.972422
3047.000000	100.974396
3046.000000	100.976967
3045.000000	100.980263
3044.000000	100.983800
3043.000000	100.986896
3042.000000	100.989231
3041.000000	100.990979
3040.000000	100.992550
3039.000000	100.994280
3038.000000	100.996318
3037.000000	100.998710
3036.000000	101.001460
3035.000000	101.004524
3034.000000	101.007832
3033.000000	101.011340
3032.000000	101.015006
3031.000000	101.018724
3030.000000	101.022298
3029.000000	101.025526
3028.000000	101.028356
3027.000000	101.030955
3026.000000	101.033618
3025.000000	101.036634
3024.000000	101.040220
3023.000000	101.044443
3022.000000	101.048999
3021.000000	101.053038
3020.000000	101.055458
3019.000000	101.055726
3018.000000	101.054748
3017.000000	101.054819
3016.000000	101.058197
3015.000000	101.065453
3014.000000	101.074791
3013.000000	101.083301
3012.000000	101.089387
3011.000000	101.093644
3010.000000	101.097357
3009.000000	101.100639
3008.000000	101.102653
3007.000000	101.103432
3006.000000	101.104553
3005.000000	101.107602
3004.000000	101.112472
3003.000000	101.117665
3002.000000	101.122033
3001.000000	101.125811
3000.000000	101.129995
2999.000000	101.135000
2998.000000	101.139942
2997.000000	101.143318
2996.000000	101.144722
2995.000000	101.145982
2994.000000	101.150136
2993.000000	101.158872
2992.000000	101.170998
2991.000000	101.183360
2990.000000	101.193029
2989.000000	101.198681
2988.000000	101.200794
2987.000000	101.201284
2986.000000	101.202472
2985.000000	101.205548
2984.000000	101.210072
2983.000000	101.215211
2982.000000	101.220918
2981.000000	101.227259
2980.000000	101.233187
2979.000000	101.237178
2978.000000	101.239193
2977.000000	101.240907
2976.000000	101.243390
2975.000000	101.245219
2974.000000	101.243716
2973.000000	101.237811
2972.000000	101.229303
2971.000000	101.221385
2970.000000	101.216148
2969.000000	101.213128
2968.000000	101.209917
2967.000000	101.204561
2966.000000	101.197803
2965.000000	101.192545
2964.000000	101.190604
2963.000000	101.190361
2962.000000	101.188373
2961.000000	101.183349
2960.000000	101.177780
2959.000000	101.175415
2958.000000	101.177584
2957.000000	101.182187
2956.000000	101.185720
2955.000000	101.185982
2954.000000	101.183253
2953.000000	101.179465
2952.000000	101.176371
2951.000000	101.174260
2950.000000	101.172446
2949.000000	101.170869
2948.000000	101.170548
2947.000000	101.171964
2946.000000	101.173489
2945.000000	101.172569
2944.000000	101.168851
2943.000000	101.165416
2942.000000	101.166139
2941.000000	101.171833
2940.000000	101.179166
2939.000000	101.183302
2938.000000	101.181841
2937.000000	101.176327
2936.000000	101.170415
2935.000000	101.166596
2934.000000	101.164785
2933.000000	101.163896
2932.000000	101.163971
2931.000000	101.166063
2930.000000	101.170340
2929.000000	101.175515
2928.000000	101.180414
2927.000000	101.185009
2926.000000	101.189333
2925.000000	101.192631
2924.000000	101.194716
2923.000000	101.197273
2922.000000	101.202312
2921.000000	101.209564
2920.000000	101.216793
2919.000000	101.222608
2918.000000	101.227661
2917.000000	101.232801
2916.000000	101.237455
2915.000000	101.240421
2914.000000	101.241313
2913.000000	101.240549
2912.000000	101.238879
2911.000000	101.237570
2910.000000	101.238223
2909.000000	101.241506
2908.000000	101.246381
2907.000000	101.251152
2906.000000	101.254881
2905.000000	101.257349
2904.000000	101.258456
2903.000000	101.258676
2902.000000	101.259601
2901.000000	101.262624
2900.000000	101.267104
2899.000000	101.270581
2898.000000	101.271343
2897.000000	101.270054
2896.000000	101.268790
2895.000000	101.269122
2894.000000	101.271189
2893.000000	101.273898
2892.000000	101.275638
2891.000000	101.275353
2890.000000	101.273526
2889.000000	101.272053
2888.000000	101.272822
2887.000000	101.276185
2886.000000	101.280712
2885.000000	101.284210
2884.000000	101.285204
2883.000000	101.283805
2882.000000	101.281341
2881.000000	101.278978
2880.000000	101.276851
2879.000000	101.274750
2878.000000	101.273147
2877.000000	101.272622
2876.000000	101.272547
2875.000000	101.271509
2874.000000	101.269303
2873.000000	101.267479
2872.000000	101.267376
2871.000000	101.268423
2870.000000	101.269064
2869.000000	101.268627
2868.000000	101.267387
2867.000000	101.265353
2866.000000	101.262213
2865.000000	101.258418
2864.000000	101.255296
2863.000000	101.253755
2862.000000	101.253565
2861.000000	101.253984
2860.000000	101.254399
2859.000000	101.254211
2858.000000	101.252885
2857.000000	101.250650
2856.000000	101.248713
2855.000000	101.248303
2854.000000	101.249693
2853.000000	101.252279
2852.000000	101.255258
2851.000000	101.258107
2850.000000	101.260749
2849.000000	101.263388
2848.000000	101.265870
2847.000000	101.267162
2846.000000	101.266051
2845.000000	101.262574
2844.000000	101.258371
2843.000000	101.255167
2842.000000	101.253290
2841.000000	101.252267
2840.000000	101.252290
2839.000000	101.254169
2838.000000	101.257825
2837.000000	101.261659
2836.000000	101.263939
2835.000000	101.264484
2834.000000	101.264514
2833.000000	101.265186
2832.000000	101.266606
2831.000000	101.268173
2830.000000	101.269451
2829.000000	101.270546
2828.000000	101.271776
2827.000000	101.273059
2826.000000	101.273705
2825.000000	101.273018
2824.000000	101.271190
2823.000000	101.269507
2822.000000	101.269295
2821.000000	101.270642
2820.000000	101.272296
2819.000000	101.272887
2818.000000	101.272272
2817.000000	101.271581
2816.000000	101.272029
2815.000000	101.273854
2814.000000	101.276371
2813.000000	101.278780
2812.000000	101.280713
2811.000000	101.282079
2810.000000	101.282810
2809.000000	101.283032
2808.000000	101.283223
2807.000000	101.283833
2806.000000	101.284813
2805.000000	101.285874
2804.000000	101.287165
2803.000000	101.289203
2802.000000	101.292025
2801.000000	101.294921
2800.000000	101.297257
2799.000000	101.299104
2798.000000	101.300672
2797.000000	101.301607
2796.000000	101.301507
2795.000000	101.300853
2794.000000	101.300650
2793.000000	101.301152
2792.000000	101.301583
2791.000000	101.301242
2790.000000	101.300366
2789.000000	101.299812
2788.000000	101.300207
2787.000000	101.301547
2786.000000	101.303317
2785.000000	101.304807
2784.000000	101.305636
2783.000000	101.306067
2782.000000	101.306626
2781.000000	101.307441
2780.000000	101.308233
2779.000000	101.308916
2778.000000	101.309832
2777.000000	101.311283
2776.000000	101.313154
2775.000000	101.315073
2774.000000	101.316749
2773.000000	101.318050
2772.000000	101.318933
2771.000000	101.319467
2770.000000	101.319853
2769.000000	101.320338
2768.000000	101.321071
2767.000000	101.322048
2766.000000	101.323136
2765.000000	101.324155
2764.000000	101.325010
2763.000000	101.325768
2762.000000	101.326564
2761.000000	101.327452
2760.000000	101.328396
2759.000000	101.329367
2758.000000	101.330378
2757.000000	101.331428
2756.000000	101.332481
2755.000000	101.333510
2754.000000	101.334511
2753.000000	101.335492
2752.000000	101.336458
2751.000000	101.337421
2750.000000	101.338413
2749.000000	101.339457
2748.000000	101.340523
2747.000000	101.341520
2746.000000	101.342386
2745.000000	101.343130
2744.000000	101.343825
2743.000000	101.344554
2742.000000	101.345395
2741.000000	101.346415
2740.000000	101.347615
2739.000000	101.348832
2738.000000	101.349841
2737.000000	101.350540
2736.000000	101.351026
2735.000000	101.351471
2734.000000	101.351925
2733.000000	101.352372
2732.000000	101.352879
2731.000000	101.353570
2730.000000	101.354482
2729.000000	101.355465
2728.000000	101.356288
2727.000000	101.356839
2726.000000	101.357222
2725.000000	101.357647
2724.000000	101.358197
2723.000000	101.358781
2722.000000	101.359343
2721.000000	101.360026
2720.000000	101.360957
2719.000000	101.361953
2718.000000	101.362674
2717.000000	101.363107
2716.000000	101.363685
2715.000000	101.364765
2714.000000	101.366116
2713.000000	101.367129
2712.000000	101.367473
2711.000000	101.367312
2710.000000	101.366933
2709.000000	101.366363
2708.000000	101.365484
2707.000000	101.364385
2706.000000	101.363491
2705.000000	101.363279
2704.000000	101.363877
2703.000000	101.364944
2702.000000	101.365944
2701.000000	101.366618
2700.000000	101.367072
2699.000000	101.367443
2698.000000	101.367618
2697.000000	101.367383
2696.000000	101.366808
2695.000000	101.366364
2694.000000	101.366553
2693.000000	101.367426
2692.000000	101.368542
2691.000000	101.369298
2690.000000	101.369457
2689.000000	101.369248
2688.000000	101.369039
2687.000000	101.368984
2686.000000	101.369013
2685.000000	101.369062
2684.000000	101.369152
2683.000000	101.369309
2682.000000	101.369544
2681.000000	101.369903
2680.000000	101.370422
2679.000000	101.371012
2678.000000	101.371480
2677.000000	101.371713
2676.000000	101.371778
2675.000000	101.371792
2674.000000	101.371801
2673.000000	101.371840
2672.000000	101.371997
2671.000000	101.372293
2670.000000	101.372548
2669.000000	101.372523
2668.000000	101.372211
2667.000000	101.371946
2666.000000	101.372127
2665.000000	101.372870
2664.000000	101.373926
2663.000000	101.374889
2662.000000	101.375505
2661.000000	101.375798
2660.000000	101.376010
2659.000000	101.376338
2658.000000	101.376684
2657.000000	101.376749
2656.000000	101.376509
2655.000000	101.376494
2654.000000	101.377338
2653.000000	101.378976
2652.000000	101.380445
2651.000000	101.380773
2650.000000	101.379984
2649.000000	101.379097
2648.000000	101.379026
2647.000000	101.379676
2646.000000	101.380154
2645.000000	101.379678
2644.000000	101.378155
2643.000000	101.376129
2642.000000	101.374347
2641.000000	101.373288
2640.000000	101.373007
2639.000000	101.373353
2638.000000	101.374275
2637.000000	101.375716
2636.000000	101.377260
2635.000000	101.378247
2634.000000	101.378448
2633.000000	101.378385
2632.000000	101.378712
2631.000000	101.379468
2630.000000	101.380268
2629.000000	101.381031
2628.000000	101.382074
2627.000000	101.383420
2626.000000	101.384467
2625.000000	101.384586
2624.000000	101.383801
2623.000000	101.382755
2622.000000	101.382123
2621.000000	101.382156
2620.000000	101.382684
2619.000000	101.383316
2618.000000	101.383734
2617.000000	101.383910
2616.000000	101.384016
2615.000000	101.384121
2614.000000	101.384117
2613.000000	101.383947
2612.000000	101.383783
2611.000000	101.383847
2610.000000	101.384148
2609.000000	101.384497
2608.000000	101.384726
2607.000000	101.384829
2606.000000	101.384903
2605.000000	101.385058
2604.000000	101.385336
2603.000000	101.385701
2602.000000	101.386077
2601.000000	101.386417
2600.000000	101.386729
2599.000000	101.387038
2598.000000	101.387344
2597.000000	101.387641
2596.000000	101.387921
2595.000000	101.388180
2594.000000	101.388421
2593.000000	101.388655
2592.000000	101.388891
2591.000000	101.389130
2590.000000	101.389366
2589.000000	101.389588
2588.000000	101.389793
2587.000000	101.389980
2586.000000	101.390153
2585.000000	101.390310
2584.000000	101.390458
2583.000000	101.390606
2582.000000	101.390766
2581.000000	101.390942
2580.000000	101.391129
2579.000000	101.391318
2578.000000	101.391498
2577.000000	101.391660
2576.000000	101.391803
2575.000000	101.391939
2574.000000	101.392075
2573.000000	101.392220
2572.000000	101.392385
2571.000000	101.392598
2570.000000	101.392876
2569.000000	101.393203
2568.000000	101.393534
2567.000000	101.393821
2566.000000	101.394041
2565.000000	101.394201
2564.000000	101.394335
2563.000000	101.394491
2562.000000	101.394712
2561.000000	101.395041
2560.000000	101.395496
2559.000000	101.396016
2558.000000	101.396464
2557.000000	101.396723
2556.000000	101.396797
2555.000000	101.396771
2554.000000	101.396714
2553.000000	101.396676
2552.000000	101.396735
2551.000000	101.396949
2550.000000	101.397259
2549.000000	101.397503
2548.000000	101.397573
2547.000000	101.397513
2546.000000	101.397454
2545.000000	101.397478
2544.000000	101.397550
2543.000000	101.397571
2542.000000	101.397508
2541.000000	101.397479
2540.000000	101.397676
2539.000000	101.398164
2538.000000	101.398776
2537.000000	101.399278
2536.000000	101.399618
2535.000000	101.399939
2534.000000	101.400408
2533.000000	101.401042
2532.000000	101.401673
2531.000000	101.402053
2530.000000	101.402065
2529.000000	101.401849
2528.000000	101.401713
2527.000000	101.401852
2526.000000	101.402184
2525.000000	101.402469
2524.000000	101.402554
2523.000000	101.402485
2522.000000	101.402433
2521.000000	101.402555
2520.000000	101.402881
2519.000000	101.403294
2518.000000	101.403595
2517.000000	101.403701
2516.000000	101.403721
2515.000000	101.403835
2514.000000	101.404094
2513.000000	101.404406
2512.000000	101.404661
2511.000000	101.404838
2510.000000	101.404979
2509.000000	101.405136
2508.000000	101.405359
2507.000000	101.405685
2506.000000	101.406099
2505.000000	101.406539
2504.000000	101.406955
2503.000000	101.407341
2502.000000	101.407709
2501.000000	101.408080
2500.000000	101.408472
2499.000000	101.408889
2498.000000	101.409313
2497.000000	101.409719
2496.000000	101.410098
2495.000000	101.410449
2494.000000	101.410772
2493.000000	101.411077
2492.000000	101.411383
2491.000000	101.411707
2490.000000	101.412050
2489.000000	101.412408
2488.000000	101.412781
2487.000000	101.413169
2486.000000	101.413574
2485.000000	101.413990
2484.000000	101.414415
2483.000000	101.414848
2482.000000	101.415291
2481.000000	101.415749
2480.000000	101.416224
2479.000000	101.416712
2478.000000	101.417204
2477.000000	101.417684
2476.000000	101.418143
2475.000000	101.418585
2474.000000	101.419019
2473.000000	101.419461
2472.000000	101.419920
2471.000000	101.420405
2470.000000	101.420918
2469.000000	101.421450
2468.000000	101.421989
2467.000000	101.422525
2466.000000	101.423053
2465.000000	101.423575
2464.000000	101.424096
2463.000000	101.424622
2462.000000	101.425159
2461.000000	101.425710
2460.000000	101.426275
2459.000000	101.426845
2458.000000	101.427413
2457.000000	101.427973
2456.000000	101.428523
2455.000000	101.429063
2454.000000	101.429597
2453.000000	101.430126
2452.000000	101.430653
2451.000000	101.431185
2450.000000	101.431729
2449.000000	101.432290
2448.000000	101.432867
2447.000000	101.433453
2446.000000	101.434040
2445.000000	101.434623
2444.000000	101.435199
2443.000000	101.435770
2442.000000	101.436333
2441.000000	101.436890
2440.000000	101.437442
2439.000000	101.437997
2438.000000	101.438558
2437.000000	101.439099
2436.000000	101.439585
2435.000000	101.440021
2434.000000	101.440472
2433.000000	101.441016
2432.000000	101.441668
2431.000000	101.442387
2430.000000	101.443128
2429.000000	101.443839
2428.000000	101.444469
2427.000000	101.445002
2426.000000	101.445473
2425.000000	101.445926
2424.000000	101.446375
2423.000000	101.446796
2422.000000	101.447145
2421.000000	101.447430
2420.000000	101.447766
2419.000000	101.448310
2418.000000	101.449060
2417.000000	101.449766
2416.000000	101.450122
2415.000000	101.450062
2414.000000	101.449832
2413.000000	101.449778
2412.000000	101.450100
2411.000000	101.450841
2410.000000	101.451993
2409.000000	101.453457
2408.000000	101.454937
2407.000000	101.456031
2406.000000	101.456475
2405.000000	101.456373
2404.000000	101.456171
2403.000000	101.456253
2402.000000	101.456653
2401.000000	101.457183
2400.000000	101.457792
2399.000000	101.458671
2398.000000	101.459900
2397.000000	101.461185
2396.000000	101.462120
2395.000000	101.462610
2394.000000	101.462933
2393.000000	101.463442
2392.000000	101.464319
2391.000000	101.465581
2390.000000	101.467134
2389.000000	101.468764
2388.000000	101.470168
2387.000000	101.471150
2386.000000	101.471767
2385.000000	101.472271
2384.000000	101.472917
2383.000000	101.473797
2382.000000	101.474869
2381.000000	101.476108
2380.000000	101.477576
2379.000000	101.479321
2378.000000	101.481228
2377.000000	101.483044
2376.000000	101.484575
2375.000000	101.485782
2374.000000	101.486665
2373.000000	101.487204
2372.000000	101.487520
2371.000000	101.487974
2370.000000	101.488902
2369.000000	101.490274
2368.000000	101.491711
2367.000000	101.492844
2366.000000	101.493573
2365.000000	101.494023
2364.000000	101.494500
2363.000000	101.495485
2362.000000	101.497261
2361.000000	101.499414
2360.000000	101.501014
2359.000000	101.501469
2358.000000	101.501009
2357.000000	101.500465
2356.000000	101.500451
2355.000000	101.501100
2354.000000	101.501913
2353.000000	101.502245
2352.000000	101.501740
2351.000000	101.500658
2350.000000	101.499912
2349.000000	101.500233
2348.000000	101.501761
2347.000000	101.503714
2346.000000	101.505049
2345.000000	101.505723
2344.000000	101.506238
2343.000000	101.507017
2342.000000	101.507378
2341.000000	101.506711
2340.000000	101.505077
2339.000000	101.503078
2338.000000	101.501327
2337.000000	101.499860
2336.000000	101.498736
2335.000000	101.497958
2334.000000	101.497723
2333.000000	101.497645
2332.000000	101.497468
2331.000000	101.496629
2330.000000	101.495575
2329.000000	101.494117
2328.000000	101.492387
2327.000000	101.489866
2326.000000	101.486845
2325.000000	101.483940
2324.000000	101.481435
2323.000000	101.479284
2322.000000	101.477531
2321.000000	101.476881
2320.000000	101.477734
2319.000000	101.479189
2318.000000	101.480098
2317.000000	101.479543
2316.000000	101.477804
2315.000000	101.475113
2314.000000	101.472642
2313.000000	101.471214
2312.000000	101.471228
2311.000000	101.470965
2310.000000	101.468898
2309.000000	101.464735
2308.000000	101.460198
2307.000000	101.456532
2306.000000	101.454058
2305.000000	101.452320
2304.000000	101.451351
2303.000000	101.450998
2302.000000	101.451056
2301.000000	101.451233
2300.000000	101.451645
2299.000000	101.451827
2298.000000	101.451160
2297.000000	101.449507
2296.000000	101.447962
2295.000000	101.447442
2294.000000	101.447662
2293.000000	101.447414
2292.000000	101.446225
2291.000000	101.444733
2290.000000	101.443686
2289.000000	101.443040
2288.000000	101.442299
2287.000000	101.441282
2286.000000	101.440172
2285.000000	101.439174
2284.000000	101.438382
2283.000000	101.437980
2282.000000	101.438114
2281.000000	101.438611
2280.000000	101.438932
2279.000000	101.438634
2278.000000	101.437732
2277.000000	101.436598
2276.000000	101.435571
2275.000000	101.434726
2274.000000	101.434055
2273.000000	101.433629
2272.000000	101.433497
2271.000000	101.433488
2270.000000	101.433304
2269.000000	101.432797
2268.000000	101.432106
2267.000000	101.431448
2266.000000	101.430944
2265.000000	101.430576
2264.000000	101.430268
2263.000000	101.429960
2262.000000	101.429631
2261.000000	101.429289
2260.000000	101.428943
2259.000000	101.428594
2258.000000	101.428244
2257.000000	101.427896
2256.000000	101.427556
2255.000000	101.427226
2254.000000	101.426906
2253.000000	101.426593
2252.000000	101.426287
2251.000000	101.425989
2250.000000	101.425697
2249.000000	101.425405
2248.000000	101.425108
2247.000000	101.424803
2246.000000	101.424495
2245.000000	101.424187
2244.000000	101.423889
2243.000000	101.423602
2242.000000	101.423328
2241.000000	101.423065
2240.000000	101.422809
2239.000000	101.422562
2238.000000	101.422324
2237.000000	101.422093
2236.000000	101.421873
2235.000000	101.421662
2234.000000	101.421459
2233.000000	101.421262
2232.000000	101.421069
2231.000000	101.420876
2230.000000	101.420682
2229.000000	101.420489
2228.000000	101.420303
2227.000000	101.420137
2226.000000	101.419995
2225.000000	101.419881
2224.000000	101.419781
2223.000000	101.419673
2222.000000	101.419534
2221.000000	101.419349
2220.000000	101.419123
2219.000000	101.418888
2218.000000	101.418671
2217.000000	101.418480
2216.000000	101.418318
2215.000000	101.418207
2214.000000	101.418160
2213.000000	101.418123
2212.000000	101.418009
2211.000000	101.417787
2210.000000	101.417505
2209.000000	101.417210
2208.000000	101.416894
2207.000000	101.416543
2206.000000	101.416223
2205.000000	101.416075
2204.000000	101.416212
2203.000000	101.416612
2202.000000	101.417078
2201.000000	101.417377
2200.000000	101.417445
2199.000000	101.417399
2198.000000	101.417341
2197.000000	101.417208
2196.000000	101.416909
2195.000000	101.416520
2194.000000	101.416241
2193.000000	101.416187
2192.000000	101.416322
2191.000000	101.416543
2190.000000	101.416739
2189.000000	101.416800
2188.000000	101.416669
2187.000000	101.416401
2186.000000	101.416103
2185.000000	101.415816
2184.000000	101.415545
2183.000000	101.415362
2182.000000	101.415362
2181.000000	101.415555
2180.000000	101.415837
2179.000000	101.416105
2178.000000	101.416382
2177.000000	101.416745
2176.000000	101.417174
2175.000000	101.417518
2174.000000	101.417639
2173.000000	101.417569
2172.000000	101.417475
2171.000000	101.417512
2170.000000	101.417671
2169.000000	101.417830
2168.000000	101.417908
2167.000000	101.417942
2166.000000	101.418034
2165.000000	101.418227
2164.000000	101.418490
2163.000000	101.418764
2162.000000	101.419004
2161.000000	101.419193
2160.000000	101.419341
2159.000000	101.419476
2158.000000	101.419620
2157.000000	101.419774
2156.000000	101.419936
2155.000000	101.420121
2154.000000	101.420348
2153.000000	101.420613
2152.000000	101.420875
2151.000000	101.421093
2150.000000	101.421253
2149.000000	101.421385
2148.000000	101.421542
2147.000000	101.421762
2146.000000	101.422040
2145.000000	101.422345
2144.000000	101.422652
2143.000000	101.422957
2142.000000	101.423229
2141.000000	101.423407
2140.000000	101.423462
2139.000000	101.423451
2138.000000	101.423489
2137.000000	101.423654
2136.000000	101.423935
2135.000000	101.424246
2134.000000	101.424481
2133.000000	101.424596
2132.000000	101.424624
2131.000000	101.424665
2130.000000	101.424819
2129.000000	101.425112
2128.000000	101.425509
2127.000000	101.425943
2126.000000	101.426368
2125.000000	101.426796
2124.000000	101.427303
2123.000000	101.427953
2122.000000	101.428666
2121.000000	101.429211
2120.000000	101.429418
2119.000000	101.429338
2118.000000	101.429214
2117.000000	101.429268
2116.000000	101.429542
2115.000000	101.429962
2114.000000	101.430457
2113.000000	101.431027
2112.000000	101.431688
2111.000000	101.432397
2110.000000	101.433035
2109.000000	101.433501
2108.000000	101.433820
2107.000000	101.434125
2106.000000	101.434453
2105.000000	101.434622
2104.000000	101.434441
2103.000000	101.434100
2102.000000	101.434171
2101.000000	101.435076
2100.000000	101.436604
2099.000000	101.437964
2098.000000	101.438546
2097.000000	101.438525
2096.000000	101.438645
2095.000000	101.439314
2094.000000	101.440063
2093.000000	101.440129
2092.000000	101.439517
2091.000000	101.439179
2090.000000	101.440011
2089.000000	101.442018
2088.000000	101.444576
2087.000000	101.447144
2086.000000	101.449383
2085.000000	101.450831
2084.000000	101.451065
2083.000000	101.450256
2082.000000	101.449172
2081.000000	101.448485
2080.000000	101.448268
2079.000000	101.448181
2078.000000	101.447903
2077.000000	101.447376
2076.000000	101.446897
2075.000000	101.446999
2074.000000	101.448053
2073.000000	101.449915
2072.000000	101.452080
2071.000000	101.454164
2070.000000	101.456101
2069.000000	101.457940
2068.000000	101.459616
2067.000000	101.460785
2066.000000	101.460859
2065.000000	101.459556
2064.000000	101.457632
2063.000000	101.456584
2062.000000	101.457115
2061.000000	101.458242
2060.000000	101.458455
2059.000000	101.457461
2058.000000	101.456142
2057.000000	101.455004
2056.000000	101.453637
2055.000000	101.451960
2054.000000	101.450852
2053.000000	101.450914
2052.000000	101.451314
2051.000000	101.450719
2050.000000	101.449031
2049.000000	101.447407
2048.000000	101.446672
2047.000000	101.446454
2046.000000	101.445893
2045.000000	101.444562
2044.000000	101.442591
2043.000000	101.440473
2042.000000	101.438942
2041.000000	101.438480
2040.000000	101.438589
2039.000000	101.437950
2038.000000	101.435751
2037.000000	101.432650
2036.000000	101.430157
2035.000000	101.429062
2034.000000	101.428902
2033.000000	101.428782
2032.000000	101.428243
2031.000000	101.427223
2030.000000	101.425663
2029.000000	101.423596
2028.000000	101.421448
2027.000000	101.419811
2026.000000	101.418891
2025.000000	101.418375
2024.000000	101.417784
2023.000000	101.416831
2022.000000	101.415473
2021.000000	101.413786
2020.000000	101.411940
2019.000000	101.410151
2018.000000	101.408504
2017.000000	101.406860
2016.000000	101.405062
2015.000000	101.403259
2014.000000	101.401867
2013.000000	101.401108
2012.000000	101.400634
2011.000000	101.399706
2010.000000	101.397952
2009.000000	101.395889
2008.000000	101.394475
2007.000000	101.394017
2006.000000	101.393767
2005.000000	101.392803
2004.000000	101.391218
2003.000000	101.389981
2002.000000	101.389648
2001.000000	101.389726
2000.000000	101.389517
1999.000000	101.389077
1998.000000	101.388956
1997.000000	101.389240
1996.000000	101.389327
1995.000000	101.388680
1994.000000	101.387480
1993.000000	101.386444
1992.000000	101.386142
1991.000000	101.386545
1990.000000	101.387130
1989.000000	101.387314
1988.000000	101.386846
1987.000000	101.385975
1986.000000	101.385234
1985.000000	101.384874
1984.000000	101.384656
1983.000000	101.384314
1982.000000	101.384069
1981.000000	101.384372
1980.000000	101.385212
1979.000000	101.386058
1978.000000	101.386623
1977.000000	101.387288
1976.000000	101.388480
1975.000000	101.389949
1974.000000	101.390914
1973.000000	101.390782
1972.000000	101.389537
1971.000000	101.387745
1970.000000	101.386454
1969.000000	101.386744
1968.000000	101.388953
1967.000000	101.392206
1966.000000	101.395012
1965.000000	101.396447
1964.000000	101.396452
1963.000000	101.395270
1962.000000	101.393283
1961.000000	101.391350
1960.000000	101.390427
1959.000000	101.390771
1958.000000	101.391891
1957.000000	101.393262
1956.000000	101.394674
1955.000000	101.395845
1954.000000	101.396382
1953.000000	101.396435
1952.000000	101.396761
1951.000000	101.397656
1950.000000	101.398167
1949.000000	101.397108
1948.000000	101.394531
1947.000000	101.391502
1946.000000	101.388638
1945.000000	101.385700
1944.000000	101.382576
1943.000000	101.379886
1942.000000	101.378336
1941.000000	101.377973
1940.000000	101.378500
1939.000000	101.379749
1938.000000	101.381341
1937.000000	101.382473
1936.000000	101.382517
1935.000000	101.381527
1934.000000	101.379903
1933.000000	101.377819
1932.000000	101.375363
1931.000000	101.372909
1930.000000	101.370746
1929.000000	101.368739
1928.000000	101.366608
1927.000000	101.364149
1926.000000	101.361145
1925.000000	101.357556
1924.000000	101.354323
1923.000000	101.353368
1922.000000	101.355688
1921.000000	101.359653
1920.000000	101.362033
1919.000000	101.360547
1918.000000	101.355557
1917.000000	101.349870
1916.000000	101.345858
1915.000000	101.343249
1914.000000	101.340402
1913.000000	101.336527
1912.000000	101.332227
1911.000000	101.328173
1910.000000	101.324052
1909.000000	101.319574
1908.000000	101.315484
1907.000000	101.312308
1906.000000	101.308938
1905.000000	101.303856
1904.000000	101.297779
1903.000000	101.293388
1902.000000	101.291956
1901.000000	101.291810
1900.000000	101.290520
1899.000000	101.287506
1898.000000	101.283955
1897.000000	101.281103
1896.000000	101.279505
1895.000000	101.278973
1894.000000	101.278092
1893.000000	101.274785
1892.000000	101.268268
1891.000000	101.260069
1890.000000	101.253096
1889.000000	101.249401
1888.000000	101.248586
1887.000000	101.248591
1886.000000	101.247584
1885.000000	101.244882
1884.000000	101.241010
1883.000000	101.237027
1882.000000	101.233669
1881.000000	101.231723
1880.000000	101.232427
1879.000000	101.236277
1878.000000	101.241547
1877.000000	101.244816
1876.000000	101.243837
1875.000000	101.239660
1874.000000	101.235360
1873.000000	101.233259
1872.000000	101.233727
1871.000000	101.235615
1870.000000	101.236764
1869.000000	101.235344
1868.000000	101.232332
1867.000000	101.230574
1866.000000	101.231273
1865.000000	101.233825
1864.000000	101.237644
1863.000000	101.242886
1862.000000	101.249348
1861.000000	101.255326
1860.000000	101.258755
1859.000000	101.259447
1858.000000	101.259349
1857.000000	101.260762
1856.000000	101.264664
1855.000000	101.270348
1854.000000	101.276512
1853.000000	101.282735
1852.000000	101.289569
1851.000000	101.296961
1850.000000	101.303649
1849.000000	101.308398
1848.000000	101.311493
1847.000000	101.314399
1846.000000	101.318083
1845.000000	101.322013
1844.000000	101.324923
1843.000000	101.326287
1842.000000	101.326319
1841.000000	101.326118
1840.000000	101.327145
1839.000000	101.330003
1838.000000	101.333816
1837.000000	101.336806
1836.000000	101.338047
1835.000000	101.338346
1834.000000	101.339374
1833.000000	101.342055
1832.000000	101.345132
1831.000000	101.345516
1830.000000	101.341624
1829.000000	101.336004
1828.000000	101.332175
1827.000000	101.331051
1826.000000	101.331409
1825.000000	101.331719
1824.000000	101.331893
1823.000000	101.332845
1822.000000	101.334635
1821.000000	101.336217
1820.000000	101.336963
1819.000000	101.337726
1818.000000	101.339045
1817.000000	101.339182
1816.000000	101.336201
1815.000000	101.331053
1814.000000	101.326772
1813.000000	101.325260
1812.000000	101.325917
1811.000000	101.327204
1810.000000	101.327821
1809.000000	101.327060
1808.000000	101.325880
1807.000000	101.325902
1806.000000	101.326945
1805.000000	101.327283
1804.000000	101.326431
1803.000000	101.325977
1802.000000	101.327244
1801.000000	101.329466
1800.000000	101.331028
1799.000000	101.331827
1798.000000	101.332308
1797.000000	101.332195
1796.000000	101.331644
1795.000000	101.332003
1794.000000	101.334482
1793.000000	101.338375
1792.000000	101.341708
1791.000000	101.343819
1790.000000	101.344512
1789.000000	101.343808
1788.000000	101.343185
1787.000000	101.344516
1786.000000	101.347922
1785.000000	101.351494
1784.000000	101.353653
1783.000000	101.354563
1782.000000	101.355157
1781.000000	101.356262
1780.000000	101.358369
1779.000000	101.361642
1778.000000	101.365405
1777.000000	101.368523
1776.000000	101.370203
1775.000000	101.370487
1774.000000	101.370143
1773.000000	101.369747
1772.000000	101.369586
1771.000000	101.371108
1770.000000	101.375700
1769.000000	101.382996
1768.000000	101.390997
1767.000000	101.397559
1766.000000	101.402618
1765.000000	101.408262
1764.000000	101.416288
1763.000000	101.425793
1762.000000	101.433215
1761.000000	101.435613
1760.000000	101.433399
1759.000000	101.429906
1758.000000	101.428275
1757.000000	101.429480
1756.000000	101.431860
1755.000000	101.433125
1754.000000	101.433174
1753.000000	101.433248
1752.000000	101.433188
1751.000000	101.431258
1750.000000	101.427703
1749.000000	101.425434
1748.000000	101.426274
1747.000000	101.428901
1746.000000	101.431071
1745.000000	101.431853
1744.000000	101.431300
1743.000000	101.430002
1742.000000	101.428768
1741.000000	101.428151
1740.000000	101.428199
1739.000000	101.428734
1738.000000	101.428999
1737.000000	101.427754
1736.000000	101.424720
1735.000000	101.420389
1734.000000	101.415702
1733.000000	101.413136
1732.000000	101.412814
1731.000000	101.413046
1730.000000	101.412558
1729.000000	101.410895
1728.000000	101.408310
1727.000000	101.405564
1726.000000	101.403586
1725.000000	101.402736
1724.000000	101.402604
1723.000000	101.402478
1722.000000	101.401258
1721.000000	101.397785
1720.000000	101.391990
1719.000000	101.385673
1718.000000	101.381430
1717.000000	101.378844
1716.000000	101.375509
1715.000000	101.371299
1714.000000	101.367091
1713.000000	101.363040
1712.000000	101.359091
1711.000000	101.355159
1710.000000	101.351120
1709.000000	101.347054
1708.000000	101.343489
1707.000000	101.341014
1706.000000	101.339155
1705.000000	101.336210
1704.000000	101.331308
1703.000000	101.325149
1702.000000	101.318600
1701.000000	101.311788
1700.000000	101.305459
1699.000000	101.301690
1698.000000	101.299693
1697.000000	101.297096
1696.000000	101.292739
1695.000000	101.287802
1694.000000	101.283661
1693.000000	101.279842
1692.000000	101.275420
1691.000000	101.270076
1690.000000	101.264050
1689.000000	101.257826
1688.000000	101.251885
1687.000000	101.246564
1686.000000	101.241691
1685.000000	101.235280
1684.000000	101.226160
1683.000000	101.218562
1682.000000	101.213848
1681.000000	101.210113
1680.000000	101.205823
1679.000000	101.200723
1678.000000	101.195575
1677.000000	101.191345
1676.000000	101.188047
1675.000000	101.184552
1674.000000	101.180388
1673.000000	101.176087
1672.000000	101.171987
1671.000000	101.167936
1670.000000	101.163281
1669.000000	101.158424
1668.000000	101.154637
1667.000000	101.151980
1666.000000	101.149908
1665.000000	101.147416
1664.000000	101.143010
1663.000000	101.135956
1662.000000	101.127949
1661.000000	101.121647
1660.000000	101.117255
1659.000000	101.112650
1658.000000	101.105875
1657.000000	101.096684
1656.000000	101.086663
1655.000000	101.078061
1654.000000	101.072860
1653.000000	101.072169
1652.000000	101.077435
1651.000000	101.082662
1650.000000	101.083913
1649.000000	101.078690
1648.000000	101.068674
1647.000000	101.061411
1646.000000	101.063588
1645.000000	101.070060
1644.000000	101.073175
1643.000000	101.072688
1642.000000	101.071425
1641.000000	101.070849
1640.000000	101.070346
1639.000000	101.069149
1638.000000	101.067936
1637.000000	101.067916
1636.000000	101.068904
1635.000000	101.069386
1634.000000	101.069160
1633.000000	101.068925
1632.000000	101.069867
1631.000000	101.072173
1630.000000	101.074877
1629.000000	101.077063
1628.000000	101.079366
1627.000000	101.082560
1626.000000	101.085891
1625.000000	101.088586
1624.000000	101.091300
1623.000000	101.095385
1622.000000	101.100966
1621.000000	101.106785
1620.000000	101.111437
1619.000000	101.113900
1618.000000	101.113469
1617.000000	101.111560
1616.000000	101.114041
1615.000000	101.123539
1614.000000	101.135667
1613.000000	101.146447
1612.000000	101.155233
1611.000000	101.162529
1610.000000	101.168091
1609.000000	101.172562
1608.000000	101.178162
1607.000000	101.186196
1606.000000	101.195748
1605.000000	101.205607
1604.000000	101.215355
1603.000000	101.224782
1602.000000	101.233402
1601.000000	101.240501
1600.000000	101.245675
1599.000000	101.249560
1598.000000	101.253958
1597.000000	101.260244
1596.000000	101.267831
1595.000000	101.274877
1594.000000	101.280177
1593.000000	101.284121
1592.000000	101.287589
1591.000000	101.290827
1590.000000	101.293852
1589.000000	101.297265
1588.000000	101.301693
1587.000000	101.307031
1586.000000	101.312948
1585.000000	101.319653
1584.000000	101.327087
1583.000000	101.333918
1582.000000	101.338875
1581.000000	101.342051
1580.000000	101.343765
1579.000000	101.343729
1578.000000	101.342942
1577.000000	101.344541
1576.000000	101.349922
1575.000000	101.355119
1574.000000	101.356146
1573.000000	101.353836
1572.000000	101.350678
1571.000000	101.348813
1570.000000	101.349748
1569.000000	101.354904
1568.000000	101.362926
1567.000000	101.369847
1566.000000	101.374349
1565.000000	101.377891
1564.000000	101.381728
1563.000000	101.384825
1562.000000	101.386165
1561.000000	101.387229
1560.000000	101.388597
1559.000000	101.385670
1558.000000	101.381117
1557.000000	101.380185
1556.000000	101.381307
1555.000000	101.382428
1554.000000	101.382809
1553.000000	101.383241
1552.000000	101.384552
1551.000000	101.386648
1550.000000	101.388458
1549.000000	101.388971
1548.000000	101.388362
1547.000000	101.387789
1546.000000	101.388025
1545.000000	101.388618
1544.000000	101.388951
1543.000000	101.389267
1542.000000	101.389995
1541.000000	101.390255
1540.000000	101.389282
1539.000000	101.388779
1538.000000	101.389330
1537.000000	101.389961
1536.000000	101.390143
1535.000000	101.389995
1534.000000	101.389793
1533.000000	101.389656
1532.000000	101.389652
1531.000000	101.389934
1530.000000	101.390591
1529.000000	101.391172
1528.000000	101.391068
1527.000000	101.390466
1526.000000	101.390357
1525.000000	101.391168
1524.000000	101.392440
1523.000000	101.393606
1522.000000	101.394317
1521.000000	101.394537
1520.000000	101.394650
1519.000000	101.395003
1518.000000	101.395754
1517.000000	101.396801
1516.000000	101.397750
1515.000000	101.398334
1514.000000	101.398785
1513.000000	101.399480
1512.000000	101.400348
1511.000000	101.401083
1510.000000	101.401628
1509.000000	101.402143
1508.000000	101.402653
1507.000000	101.403577
1506.000000	101.405729
1505.000000	101.408038
1504.000000	101.409431
1503.000000	101.410054
1502.000000	101.410141
1501.000000	101.410069
1500.000000	101.410059
1499.000000	101.410170
1498.000000	101.410383
1497.000000	101.409889
1496.000000	101.407896
1495.000000	101.405946
1494.000000	101.406142
1493.000000	101.408674
1492.000000	101.411979
1491.000000	101.414080
1490.000000	101.414628
1489.000000	101.414944
1488.000000	101.415686
1487.000000	101.416749
1486.000000	101.417365
1485.000000	101.417010
1484.000000	101.416412
1483.000000	101.416737
1482.000000	101.418690
1481.000000	101.421618
1480.000000	101.424285
1479.000000	101.426313
1478.000000	101.427648
1477.000000	101.427192
1476.000000	101.424129
1475.000000	101.420479
1474.000000	101.419375
1473.000000	101.421298
1472.000000	101.423002
1471.000000	101.422229
1470.000000	101.419782
1469.000000	101.417535
1468.000000	101.416156
1467.000000	101.415054
1466.000000	101.413063
1465.000000	101.409671
1464.000000	101.406238
1463.000000	101.404174
1462.000000	101.402953
1461.000000	101.400670
1460.000000	101.396014
1459.000000	101.389734
1458.000000	101.385269
1457.000000	101.385176
1456.000000	101.386636
1455.000000	101.386226
1454.000000	101.385953
1453.000000	101.387362
1452.000000	101.388868
1451.000000	101.388231
1450.000000	101.385311
1449.000000	101.381252
1448.000000	101.376422
1447.000000	101.370573
1446.000000	101.363108
1445.000000	101.353617
1444.000000	101.343172
1443.000000	101.334524
1442.000000	101.329511
1441.000000	101.326779
1440.000000	101.323517
1439.000000	101.319374
1438.000000	101.317232
1437.000000	101.318369
1436.000000	101.319446
1435.000000	101.317573
1434.000000	101.314784
1433.000000	101.313494
1432.000000	101.313082
1431.000000	101.311178
1430.000000	101.307869
1429.000000	101.305833
1428.000000	101.306003
1427.000000	101.306807
1426.000000	101.307065
1425.000000	101.307690
1424.000000	101.309612
1423.000000	101.312066
1422.000000	101.314235
1421.000000	101.316442
1420.000000	101.318777
1419.000000	101.321385
1418.000000	101.326951
1417.000000	101.334692
1416.000000	101.340127
1415.000000	101.341538
1414.000000	101.340971
1413.000000	101.341595
1412.000000	101.344650
1411.000000	101.349135
1410.000000	101.354030
1409.000000	101.358815
1408.000000	101.362780
1407.000000	101.365600
1406.000000	101.368177
1405.000000	101.372899
1404.000000	101.381221
1403.000000	101.391858
1402.000000	101.402272
1401.000000	101.409777
1400.000000	101.412174
1399.000000	101.410221
1398.000000	101.408853
1397.000000	101.412012
1396.000000	101.418963
1395.000000	101.426020
1394.000000	101.430331
1393.000000	101.431947
1392.000000	101.432260
1391.000000	101.433274
1390.000000	101.436391
1389.000000	101.440642
1388.000000	101.443243
1387.000000	101.443612
1386.000000	101.445099
1385.000000	101.450400
1384.000000	101.458005
1383.000000	101.464346
1382.000000	101.467419
1381.000000	101.467464
1380.000000	101.465194
1379.000000	101.460971
1378.000000	101.456049
1377.000000	101.452770
1376.000000	101.452481
1375.000000	101.453966
1374.000000	101.454557
1373.000000	101.452589
1372.000000	101.448449
1371.000000	101.444523
1370.000000	101.443685
1369.000000	101.447207
1368.000000	101.453108
1367.000000	101.457812
1366.000000	101.459897
1365.000000	101.460597
1364.000000	101.461232
1363.000000	101.461829
1362.000000	101.461662
1361.000000	101.460209
1360.000000	101.457557
1359.000000	101.454410
1358.000000	101.451761
1357.000000	101.450494
1356.000000	101.450792
1355.000000	101.452144
1354.000000	101.453822
1353.000000	101.454975
1352.000000	101.454859
1351.000000	101.453559
1350.000000	101.451873
1349.000000	101.450836
1348.000000	101.450679
1347.000000	101.450960
1346.000000	101.451588
1345.000000	101.452959
1344.000000	101.455029
1343.000000	101.457178
1342.000000	101.458906
1341.000000	101.460038
1340.000000	101.460316
1339.000000	101.459601
1338.000000	101.458490
1337.000000	101.457723
1336.000000	101.457022
1335.000000	101.455660
1334.000000	101.454023
1333.000000	101.453479
1332.000000	101.454510
1331.000000	101.456214
1330.000000	101.458107
1329.000000	101.461123
1328.000000	101.465642
1327.000000	101.469514
1326.000000	101.469524
1325.000000	101.464689
1324.000000	101.457214
1323.000000	101.450924
1322.000000	101.448688
1321.000000	101.450406
1320.000000	101.452941
1319.000000	101.452976
1318.000000	101.450621
1317.000000	101.449065
1316.000000	101.450387
1315.000000	101.453473
1314.000000	101.456460
1313.000000	101.459185
1312.000000	101.461928
1311.000000	101.463439
1310.000000	101.462386
1309.000000	101.459886
1308.000000	101.458608
1307.000000	101.459442
1306.000000	101.460622
1305.000000	101.460670
1304.000000	101.460256
1303.000000	101.460707
1302.000000	101.461941
1301.000000	101.462634
1300.000000	101.461695
1299.000000	101.459149
1298.000000	101.456248
1297.000000	101.454943
1296.000000	101.456422
1295.000000	101.459565
1294.000000	101.461589
1293.000000	101.460730
1292.000000	101.457634
1291.000000	101.453865
1290.000000	101.450174
1289.000000	101.447174
1288.000000	101.446374
1287.000000	101.448351
1286.000000	101.450112
1285.000000	101.446880
1284.000000	101.437517
1283.000000	101.426769
1282.000000	101.420861
1281.000000	101.421607
1280.000000	101.425945
1279.000000	101.429992
1278.000000	101.432301
1277.000000	101.433722
1276.000000	101.435754
1275.000000	101.439163
1274.000000	101.443120
1273.000000	101.445401
1272.000000	101.444214
1271.000000	101.440241
1270.000000	101.436387
1269.000000	101.435162
1268.000000	101.436562
1267.000000	101.438577
1266.000000	101.439394
1265.000000	101.438747
1264.000000	101.437209
1263.000000	101.434710
1262.000000	101.430527
1261.000000	101.425035
1260.000000	101.420599
1259.000000	101.419186
1258.000000	101.419346
1257.000000	101.417040
1256.000000	101.409805
1255.000000	101.398975
1254.000000	101.387624
1253.000000	101.377758
1252.000000	101.370265
1251.000000	101.365543
1250.000000	101.362123
1249.000000	101.355721
1248.000000	101.342089
1247.000000	101.321201
1246.000000	101.297740
1245.000000	101.277302
1244.000000	101.262672
1243.000000	101.252820
1242.000000	101.243859
1241.000000	101.231429
1240.000000	101.213764
1239.000000	101.192666
1238.000000	101.170856
1237.000000	101.149018
1236.000000	101.126589
1235.000000	101.104045
1234.000000	101.081967
1233.000000	101.058376
1232.000000	101.029787
1231.000000	100.995429
1230.000000	100.958367
1229.000000	100.921726
1228.000000	100.885502
1227.000000	100.847540
1226.000000	100.805569
1225.000000	100.757448
1224.000000	100.701348
1223.000000	100.637170
1222.000000	100.566702
1221.000000	100.491168
1220.000000	100.409514
1219.000000	100.320237
1218.000000	100.224377
1217.000000	100.125600
1216.000000	100.027164
1215.000000	99.929049
1214.000000	99.828278
1213.000000	99.722282
1212.000000	99.611768
1211.000000	99.499790
1210.000000	99.388496
1209.000000	99.277985
1208.000000	99.167799
1207.000000	99.057522
1206.000000	98.946494
1205.000000	98.835501
1204.000000	98.727965
1203.000000	98.626143
1202.000000	98.526865
1201.000000	98.425080
1200.000000	98.321277
1199.000000	98.220480
1198.000000	98.123578
1197.000000	98.025440
1196.000000	97.923251
1195.000000	97.820932
1194.000000	97.722427
1193.000000	97.625295
1192.000000	97.524403
1191.000000	97.418532
1190.000000	97.310448
1189.000000	97.203146
1188.000000	97.098012
1187.000000	96.993793
1186.000000	96.885990
1185.000000	96.770742
1184.000000	96.650478
1183.000000	96.531804
1182.000000	96.416662
1181.000000	96.300118
1180.000000	96.178112
1179.000000	96.052024
1178.000000	95.923713
1177.000000	95.791809
1176.000000	95.655653
1175.000000	95.517413
1174.000000	95.377015
1173.000000	95.230150
1172.000000	95.074865
1171.000000	94.915644
1170.000000	94.757864
1169.000000	94.602750
1168.000000	94.450815
1167.000000	94.305966
1166.000000	94.174321
1165.000000	94.064331
1164.000000	93.989740
1163.000000	93.965098
1162.000000	93.993574
1161.000000	94.062086
1160.000000	94.148553
1159.000000	94.229153
1158.000000	94.281038
1157.000000	94.288600
1156.000000	94.251444
1155.000000	94.181755
1154.000000	94.091779
1153.000000	93.987418
1152.000000	93.873382
1151.000000	93.756375
1150.000000	93.639991
1149.000000	93.522888
1148.000000	93.404934
1147.000000	93.289157
1146.000000	93.175471
1145.000000	93.059186
1144.000000	92.938483
1143.000000	92.817314
1142.000000	92.699013
1141.000000	92.583183
1140.000000	92.469779
1139.000000	92.358717
1138.000000	92.244423
1137.000000	92.119332
1136.000000	91.984712
1135.000000	91.849808
1134.000000	91.718540
1133.000000	91.585709
1132.000000	91.448029
1131.000000	91.309078
1130.000000	91.170933
1129.000000	91.030719
1128.000000	90.888417
1127.000000	90.748456
1126.000000	90.610753
1125.000000	90.469836
1124.000000	90.325187
1123.000000	90.182015
1122.000000	90.039643
1121.000000	89.890880
1120.000000	89.736104
1119.000000	89.585536
1118.000000	89.443287
1117.000000	89.301718
1116.000000	89.155769
1115.000000	89.009958
1114.000000	88.866664
1113.000000	88.721195
1112.000000	88.574068
1111.000000	88.434471
1110.000000	88.305666
1109.000000	88.180026
1108.000000	88.053296
1107.000000	87.930609
1106.000000	87.813239
1105.000000	87.693083
1104.000000	87.566205
1103.000000	87.439085
1102.000000	87.316202
1101.000000	87.194361
1100.000000	87.073390
1099.000000	86.959202
1098.000000	86.850206
1097.000000	86.735273
1096.000000	86.610857
1095.000000	86.487524
1094.000000	86.374484
1093.000000	86.270144
1092.000000	86.171471
1091.000000	86.078855
1090.000000	85.988078
1089.000000	85.892007
1088.000000	85.794365
1087.000000	85.707799
1086.000000	85.634698
1085.000000	85.563960
1084.000000	85.489442
1083.000000	85.416500
1082.000000	85.347571
1081.000000	85.277130
1080.000000	85.204357
1079.000000	85.135438
1078.000000	85.070211
1077.000000	85.001540
1076.000000	84.929530
1075.000000	84.859539
1074.000000	84.784259
1073.000000	84.685465
1072.000000	84.556168
1071.000000	84.404510
1070.000000	84.234407
1069.000000	84.039784
1068.000000	83.820268
1067.000000	83.584443
1066.000000	83.334908
1065.000000	83.069171
1064.000000	82.798665
1063.000000	82.546485
1062.000000	82.320937
1061.000000	82.110442
1060.000000	81.908135
1059.000000	81.720114
1058.000000	81.545615
1057.000000	81.371754
1056.000000	81.193698
1055.000000	81.018081
1054.000000	80.840491
1053.000000	80.641923
1052.000000	80.415221
1051.000000	80.172353
1050.000000	79.917380
1049.000000	79.638271
1048.000000	79.335046
1047.000000	79.027389
1046.000000	78.723848
1045.000000	78.409931
1044.000000	78.075823
1043.000000	77.732109
1042.000000	77.389986
1041.000000	77.048264
1040.000000	76.708728
1039.000000	76.382637
1038.000000	76.073170
1037.000000	75.772592
1036.000000	75.483859
1035.000000	75.222476
1034.000000	74.990463
1033.000000	74.772426
1032.000000	74.563894
1031.000000	74.378414
1030.000000	74.219080
1029.000000	74.068832
1028.000000	73.917634
1027.000000	73.774663
1026.000000	73.645088
1025.000000	73.519769
1024.000000	73.396281
1023.000000	73.285221
1022.000000	73.187140
1021.000000	73.087479
1020.000000	72.982140
1019.000000	72.883620
1018.000000	72.794418
1017.000000	72.699428
1016.000000	72.592567
1015.000000	72.486555
1014.000000	72.388786
1013.000000	72.291947
1012.000000	72.195607
1011.000000	72.112064
1010.000000	72.042676
1009.000000	71.972160
1008.000000	71.894046
1007.000000	71.819237
1006.000000	71.753468
1005.000000	71.689775
1004.000000	71.628571
1003.000000	71.580936
1002.000000	71.546520
1001.000000	71.512313
1000.000000	71.478104
999.000000	71.458327
998.000000	71.454050
997.000000	71.448971
996.000000	71.438434
995.000000	71.436264
994.000000	71.446986
993.000000	71.457809
992.000000	71.465182
991.000000	71.483730
990.000000	71.521156
989.000000	71.568378
988.000000	71.621271
987.000000	71.688916
986.000000	71.774574
985.000000	71.871798
984.000000	71.983794
983.000000	72.122494
982.000000	72.284317
981.000000	72.451947
980.000000	72.624744
979.000000	72.822041
978.000000	73.051491
977.000000	73.299522
976.000000	73.557894
975.000000	73.833995
974.000000	74.128645
973.000000	74.429178
972.000000	74.732273
971.000000	75.050539
970.000000	75.388616
969.000000	75.733422
968.000000	76.074132
967.000000	76.412171
966.000000	76.747044
965.000000	77.072381
964.000000	77.390149
963.000000	77.709190
962.000000	78.026120
961.000000	78.327267
960.000000	78.612734
959.000000	78.898742
958.000000	79.192465
957.000000	79.483441
956.000000	79.763096
955.000000	80.033271
954.000000	80.291961
953.000000	80.529997
952.000000	80.746948
951.000000	80.953622
950.000000	81.155091
949.000000	81.346563
948.000000	81.527469
947.000000	81.702777
946.000000	81.869539
945.000000	82.019842
944.000000	82.158227
943.000000	82.298498
942.000000	82.442320
941.000000	82.579088
940.000000	82.707133
939.000000	82.835374
938.000000	82.963427
937.000000	83.081082
936.000000	83.189787
935.000000	83.304020
934.000000	83.428485
933.000000	83.554420
932.000000	83.681099
931.000000	83.818821
930.000000	83.966315
929.000000	84.107400
928.000000	84.236076
927.000000	84.364041
926.000000	84.497016
925.000000	84.624632
924.000000	84.741726
923.000000	84.859456
922.000000	84.985422
921.000000	85.110421
920.000000	85.225071
919.000000	85.334443
918.000000	85.447144
917.000000	85.563341
916.000000	85.681082
915.000000	85.801548
914.000000	85.922052
913.000000	86.037322
912.000000	86.153627
911.000000	86.288689
910.000000	86.452752
909.000000	86.642208
908.000000	86.854406
907.000000	87.093758
906.000000	87.359615
905.000000	87.643092
904.000000	87.939628
903.000000	88.250584
902.000000	88.570336
901.000000	88.887442
900.000000	89.201461
899.000000	89.522955
898.000000	89.853004
897.000000	90.177686
896.000000	90.486696
895.000000	90.783773
894.000000	91.074954
893.000000	91.359610
892.000000	91.637045
891.000000	91.909772
890.000000	92.176096
889.000000	92.429865
888.000000	92.670382
887.000000	92.902865
886.000000	93.128055
885.000000	93.342309
884.000000	93.548769
883.000000	93.756140
882.000000	93.964544
881.000000	94.164777
880.000000	94.353663
879.000000	94.537993
878.000000	94.721657
877.000000	94.902440
876.000000	95.084630
875.000000	95.280719
874.000000	95.495290
873.000000	95.718446
872.000000	95.938876
871.000000	96.152766
870.000000	96.358195
869.000000	96.552902
868.000000	96.741249
867.000000	96.933210
866.000000	97.131932
865.000000	97.329274
864.000000	97.516007
863.000000	97.690067
862.000000	97.854314
861.000000	98.013271
860.000000	98.172534
859.000000	98.334274
858.000000	98.492812
857.000000	98.640751
856.000000	98.778111
855.000000	98.908350
854.000000	99.027818
853.000000	99.128575
852.000000	99.210971
851.000000	99.284384
850.000000	99.355474
849.000000	99.423995
848.000000	99.489011
847.000000	99.548840
846.000000	99.594675
845.000000	99.615021
844.000000	99.608625
843.000000	99.584624
842.000000	99.549147
841.000000	99.500434
840.000000	99.437050
839.000000	99.360273
838.000000	99.267291
837.000000	99.153620
836.000000	99.025292
835.000000	98.898479
834.000000	98.783982
833.000000	98.682152
832.000000	98.595644
831.000000	98.534563
830.000000	98.503971
829.000000	98.498530
828.000000	98.515088
827.000000	98.557147
826.000000	98.619241
825.000000	98.680567
824.000000	98.723674
823.000000	98.748066
822.000000	98.759227
821.000000	98.758752
820.000000	98.751574
819.000000	98.746220
818.000000	98.738092
817.000000	98.704459
816.000000	98.624942
815.000000	98.498302
814.000000	98.331502
813.000000	98.120456
812.000000	97.850441
811.000000	97.508115
810.000000	97.083318
809.000000	96.565487
808.000000	95.950354
807.000000	95.249257
806.000000	94.485523
805.000000	93.686524
804.000000	92.885954
803.000000	92.124837
802.000000	91.438745
801.000000	90.849441
800.000000	90.374654
799.000000	90.033581
798.000000	89.834105
797.000000	89.765881
796.000000	89.811555
795.000000	89.951304
794.000000	90.152765
793.000000	90.374095
792.000000	90.585440
791.000000	90.776311
790.000000	90.938644
789.000000	91.055412
788.000000	91.109315
787.000000	91.090096
786.000000	90.990134
785.000000	90.806486
784.000000	90.553461
783.000000	90.262862
782.000000	89.966985
781.000000	89.691555
780.000000	89.467432
779.000000	89.332411
778.000000	89.311816
777.000000	89.406707
776.000000	89.603272
775.000000	89.879713
774.000000	90.202512
773.000000	90.534158
772.000000	90.852213
771.000000	91.150966
770.000000	91.424045
769.000000	91.658417
768.000000	91.846126
767.000000	91.988568
766.000000	92.088854
765.000000	92.154277
764.000000	92.206711
763.000000	92.273013
762.000000	92.359509
761.000000	92.450075
760.000000	92.533689
759.000000	92.619392
758.000000	92.719976
757.000000	92.836562
756.000000	92.965213
755.000000	93.103776
754.000000	93.245011
753.000000	93.376311
752.000000	93.493929
751.000000	93.607285
750.000000	93.724135
749.000000	93.842172
748.000000	93.959781
747.000000	94.083904
746.000000	94.222266
745.000000	94.378041
744.000000	94.555430
743.000000	94.757890
742.000000	94.976344
741.000000	95.192289
740.000000	95.398460
739.000000	95.605390
738.000000	95.822959
737.000000	96.046225
736.000000	96.263505
735.000000	96.466388
734.000000	96.646682
733.000000	96.796042
732.000000	96.915661
731.000000	97.016485
730.000000	97.103623
729.000000	97.169860
728.000000	97.210371
727.000000	97.235653
726.000000	97.264663
725.000000	97.311401
724.000000	97.381289
723.000000	97.472399
722.000000	97.576462
721.000000	97.686400
720.000000	97.805492
719.000000	97.941022
718.000000	98.087864
717.000000	98.228720
716.000000	98.351723
715.000000	98.457197
714.000000	98.546922
713.000000	98.619994
712.000000	98.681837
711.000000	98.742694
710.000000	98.800648
709.000000	98.839305
708.000000	98.849546
707.000000	98.840924
706.000000	98.823458
705.000000	98.788894
704.000000	98.719179
703.000000	98.602832
702.000000	98.431399
701.000000	98.189645
700.000000	97.864630
699.000000	97.463600
698.000000	97.019700
697.000000	96.587519
696.000000	96.236263
695.000000	96.031337
694.000000	96.003731
693.000000	96.134326
692.000000	96.368357
691.000000	96.643396
690.000000	96.910613
689.000000	97.143745
688.000000	97.337598
687.000000	97.496144
686.000000	97.619992
685.000000	97.711615
684.000000	97.788874
683.000000	97.876530
682.000000	97.980448
681.000000	98.082626
680.000000	98.166173
679.000000	98.233366
678.000000	98.294685
677.000000	98.355796
676.000000	98.420620
675.000000	98.492497
674.000000	98.568374
673.000000	98.641078
672.000000	98.710683
671.000000	98.787234
670.000000	98.881850
669.000000	99.000202
668.000000	99.136581
667.000000	99.261515
666.000000	99.350710
665.000000	99.416186
664.000000	99.471299
663.000000	99.519799
662.000000	99.560137
661.000000	99.590532
660.000000	99.611561
659.000000	99.620460
658.000000	99.608692
657.000000	99.575800
656.000000	99.538473
655.000000	99.511585
654.000000	99.486794
653.000000	99.445434
652.000000	99.391768
651.000000	99.354642
650.000000	99.350049
649.000000	99.363766
648.000000	99.381354
647.000000	99.413311
646.000000	99.477305
645.000000	99.572753
644.000000	99.687434
643.000000	99.812169
642.000000	99.935683
641.000000	100.041625
640.000000	100.123190
639.000000	100.189641
638.000000	100.250955
637.000000	100.307882
636.000000	100.362871
635.000000	100.422682
634.000000	100.479435
633.000000	100.510603
632.000000	100.513700
631.000000	100.524773
630.000000	100.588507
629.000000	100.719754
628.000000	100.901377
627.000000	101.095505
626.000000	101.246438
625.000000	101.305452
624.000000	101.278046
623.000000	101.233551
622.000000	101.246873
621.000000	101.332556
620.000000	101.449599
619.000000	101.546651
618.000000	101.586431
617.000000	101.558161
616.000000	101.495030
615.000000	101.461296
614.000000	101.486900
613.000000	101.528284
612.000000	101.521941
611.000000	101.454468
610.000000	101.358202
609.000000	101.260022
608.000000	101.172146
607.000000	101.116493
606.000000	101.112295
605.000000	101.145660
604.000000	101.185703
603.000000	101.215859
602.000000	101.223701
601.000000	101.184323
600.000000	101.088655
599.000000	100.973096
598.000000	100.881247
597.000000	100.806683
596.000000	100.718719
595.000000	100.632622
594.000000	100.606158
593.000000	100.663045
592.000000	100.760051
591.000000	100.834647
590.000000	100.860823
589.000000	100.852086
588.000000	100.828583
587.000000	100.793803
586.000000	100.732924
585.000000	100.639071
584.000000	100.553883
583.000000	100.560197
582.000000	100.701529
581.000000	100.924392
580.000000	101.134862
579.000000	101.294492
578.000000	101.439672
577.000000	101.619777
576.000000	101.832522
575.000000	102.015157
574.000000	102.096975
573.000000	102.071975
572.000000	102.007830
571.000000	101.974377
570.000000	101.960255
569.000000	101.894283
568.000000	101.765483
567.000000	101.656146
566.000000	101.616129
565.000000	101.584465
564.000000	101.500143
563.000000	101.403813
562.000000	101.360311
561.000000	101.341479
560.000000	101.277615
559.000000	101.174595
558.000000	101.097544
557.000000	101.071499
556.000000	101.079159
555.000000	101.115982
554.000000	101.173943
553.000000	101.213100
552.000000	101.211654
551.000000	101.209818
550.000000	101.262727
