PE IR       SUBTECH     SPECTRUM    ASCII       PEDS        4.00        
   -1
BH1 8-8 30 50_1.asc
24/05/14
12:42:05.00
24/05/14
12:42:43.00
Administrator
?品 036 用? Administrator 日期 Tuesday, May 14 2024
550.000000
#HDR
-1
-1
#GR
cm-1
%T
1.0
0.0
4000.000000
-1.000000
3451
8
99.938559
82.158899
#DATA
4000.000000	99.709762
3999.000000	99.709816
3998.000000	99.709762
3997.000000	99.709061
3996.000000	99.707655
3995.000000	99.706002
3994.000000	99.704932
3993.000000	99.705198
3992.000000	99.706947
3991.000000	99.709560
3990.000000	99.711976
3989.000000	99.713321
3988.000000	99.713429
3987.000000	99.712787
3986.000000	99.712072
3985.000000	99.711644
3984.000000	99.711397
3983.000000	99.711106
3982.000000	99.710713
3981.000000	99.710168
3980.000000	99.709189
3979.000000	99.707499
3978.000000	99.705342
3977.000000	99.703571
3976.000000	99.703001
3975.000000	99.703681
3974.000000	99.704887
3973.000000	99.705801
3972.000000	99.706184
3971.000000	99.706378
3970.000000	99.706843
3969.000000	99.707727
3968.000000	99.708782
3967.000000	99.709561
3966.000000	99.709669
3965.000000	99.708934
3964.000000	99.707503
3963.000000	99.705893
3962.000000	99.704831
3961.000000	99.704824
3960.000000	99.705805
3959.000000	99.707206
3958.000000	99.708349
3957.000000	99.708872
3956.000000	99.708832
3955.000000	99.708547
3954.000000	99.708382
3953.000000	99.708517
3952.000000	99.708859
3951.000000	99.709163
3950.000000	99.709263
3949.000000	99.709205
3948.000000	99.709157
3947.000000	99.709213
3946.000000	99.709338
3945.000000	99.709447
3944.000000	99.709491
3943.000000	99.709485
3942.000000	99.709477
3941.000000	99.709495
3940.000000	99.709534
3939.000000	99.709574
3938.000000	99.709599
3937.000000	99.709603
3936.000000	99.709592
3935.000000	99.709575
3934.000000	99.709561
3933.000000	99.709554
3932.000000	99.709552
3931.000000	99.709549
3930.000000	99.709534
3929.000000	99.709505
3928.000000	99.709464
3927.000000	99.709424
3926.000000	99.709397
3925.000000	99.709390
3924.000000	99.709404
3923.000000	99.709434
3922.000000	99.709471
3921.000000	99.709512
3920.000000	99.709556
3919.000000	99.709606
3918.000000	99.709664
3917.000000	99.709725
3916.000000	99.709781
3915.000000	99.709823
3914.000000	99.709846
3913.000000	99.709846
3912.000000	99.709831
3911.000000	99.709809
3910.000000	99.709787
3909.000000	99.709778
3908.000000	99.709789
3907.000000	99.709816
3906.000000	99.709839
3905.000000	99.709849
3904.000000	99.709861
3903.000000	99.709906
3902.000000	99.709999
3901.000000	99.710121
3900.000000	99.710226
3899.000000	99.710268
3898.000000	99.710222
3897.000000	99.710094
3896.000000	99.709928
3895.000000	99.709798
3894.000000	99.709777
3893.000000	99.709895
3892.000000	99.710087
3891.000000	99.710230
3890.000000	99.710281
3889.000000	99.710322
3888.000000	99.710474
3887.000000	99.710777
3886.000000	99.711102
3885.000000	99.711229
3884.000000	99.711048
3883.000000	99.710646
3882.000000	99.710241
3881.000000	99.709997
3880.000000	99.709942
3879.000000	99.709997
3878.000000	99.710060
3877.000000	99.710055
3876.000000	99.709902
3875.000000	99.709528
3874.000000	99.708960
3873.000000	99.708365
3872.000000	99.707954
3871.000000	99.707834
3870.000000	99.707903
3869.000000	99.707916
3868.000000	99.707692
3867.000000	99.707198
3866.000000	99.706453
3865.000000	99.705493
3864.000000	99.704487
3863.000000	99.703739
3862.000000	99.703460
3861.000000	99.703563
3860.000000	99.703691
3859.000000	99.703563
3858.000000	99.703255
3857.000000	99.703106
3856.000000	99.703312
3855.000000	99.703662
3854.000000	99.703784
3853.000000	99.703483
3852.000000	99.702779
3851.000000	99.701965
3850.000000	99.701375
3849.000000	99.700939
3848.000000	99.700232
3847.000000	99.698933
3846.000000	99.697247
3845.000000	99.695855
3844.000000	99.695310
3843.000000	99.695523
3842.000000	99.695840
3841.000000	99.695596
3840.000000	99.694742
3839.000000	99.693990
3838.000000	99.694162
3837.000000	99.695362
3836.000000	99.696940
3835.000000	99.698178
3834.000000	99.698754
3833.000000	99.698635
3832.000000	99.697931
3831.000000	99.696917
3830.000000	99.696042
3829.000000	99.695723
3828.000000	99.696035
3827.000000	99.696550
3826.000000	99.696646
3825.000000	99.696032
3824.000000	99.694911
3823.000000	99.693785
3822.000000	99.693112
3821.000000	99.692961
3820.000000	99.693008
3819.000000	99.693078
3818.000000	99.693386
3817.000000	99.694127
3816.000000	99.695061
3815.000000	99.695561
3814.000000	99.695167
3813.000000	99.694008
3812.000000	99.692680
3811.000000	99.691763
3810.000000	99.691442
3809.000000	99.691467
3808.000000	99.691410
3807.000000	99.691118
3806.000000	99.690855
3805.000000	99.691014
3804.000000	99.691858
3803.000000	99.693311
3802.000000	99.694936
3801.000000	99.696162
3800.000000	99.696571
3799.000000	99.696156
3798.000000	99.695302
3797.000000	99.694464
3796.000000	99.693977
3795.000000	99.694003
3794.000000	99.694419
3793.000000	99.694751
3792.000000	99.694388
3791.000000	99.693052
3790.000000	99.691203
3789.000000	99.689938
3788.000000	99.690311
3787.000000	99.692439
3786.000000	99.695045
3785.000000	99.696217
3784.000000	99.695000
3783.000000	99.692139
3782.000000	99.689218
3781.000000	99.687065
3780.000000	99.685169
3779.000000	99.682689
3778.000000	99.679942
3777.000000	99.678445
3776.000000	99.679356
3775.000000	99.682304
3774.000000	99.685735
3773.000000	99.688300
3772.000000	99.689824
3771.000000	99.691066
3770.000000	99.692637
3769.000000	99.694248
3768.000000	99.695289
3767.000000	99.695717
3766.000000	99.695872
3765.000000	99.695799
3764.000000	99.695132
3763.000000	99.693630
3762.000000	99.691692
3761.000000	99.690216
3760.000000	99.689832
3759.000000	99.689891
3758.000000	99.688821
3757.000000	99.686036
3756.000000	99.682903
3755.000000	99.681635
3754.000000	99.683428
3753.000000	99.687631
3752.000000	99.692788
3751.000000	99.698275
3750.000000	99.704350
3749.000000	99.711012
3748.000000	99.717734
3747.000000	99.723170
3746.000000	99.724255
3745.000000	99.718125
3744.000000	99.706082
3743.000000	99.692858
3742.000000	99.682512
3741.000000	99.677283
3740.000000	99.677475
3739.000000	99.681199
3738.000000	99.685405
3737.000000	99.687928
3736.000000	99.688694
3735.000000	99.689092
3734.000000	99.690206
3733.000000	99.691697
3732.000000	99.691743
3731.000000	99.688016
3730.000000	99.679369
3729.000000	99.666776
3728.000000	99.653236
3727.000000	99.642897
3726.000000	99.638823
3725.000000	99.640596
3724.000000	99.644417
3723.000000	99.646171
3722.000000	99.644501
3721.000000	99.641020
3720.000000	99.638073
3719.000000	99.636351
3718.000000	99.634679
3717.000000	99.631768
3716.000000	99.627504
3715.000000	99.622609
3714.000000	99.617303
3713.000000	99.610334
3712.000000	99.599693
3711.000000	99.584878
3710.000000	99.568480
3709.000000	99.554387
3708.000000	99.544123
3707.000000	99.536005
3706.000000	99.527614
3705.000000	99.518496
3704.000000	99.510195
3703.000000	99.503789
3702.000000	99.497932
3701.000000	99.490396
3700.000000	99.481424
3699.000000	99.473639
3698.000000	99.468735
3697.000000	99.466080
3696.000000	99.464618
3695.000000	99.464641
3694.000000	99.466801
3693.000000	99.469937
3692.000000	99.471364
3691.000000	99.470022
3690.000000	99.468436
3689.000000	99.469350
3688.000000	99.471003
3687.000000	99.469607
3686.000000	99.465051
3685.000000	99.460632
3684.000000	99.458461
3683.000000	99.457039
3682.000000	99.453312
3681.000000	99.446096
3680.000000	99.436686
3679.000000	99.426885
3678.000000	99.417267
3677.000000	99.407799
3676.000000	99.399563
3675.000000	99.392992
3674.000000	99.386558
3673.000000	99.380071
3672.000000	99.375286
3671.000000	99.373029
3670.000000	99.371703
3669.000000	99.368425
3668.000000	99.362110
3667.000000	99.354283
3666.000000	99.346380
3665.000000	99.338205
3664.000000	99.329418
3663.000000	99.321062
3662.000000	99.314948
3661.000000	99.311728
3660.000000	99.309993
3659.000000	99.307358
3658.000000	99.302211
3657.000000	99.294945
3656.000000	99.287513
3655.000000	99.281277
3654.000000	99.276200
3653.000000	99.271581
3652.000000	99.266146
3651.000000	99.258266
3650.000000	99.247016
3649.000000	99.232832
3648.000000	99.217618
3647.000000	99.204519
3646.000000	99.195901
3645.000000	99.191317
3644.000000	99.187947
3643.000000	99.182994
3642.000000	99.176091
3641.000000	99.169201
3640.000000	99.164017
3639.000000	99.159849
3638.000000	99.154344
3637.000000	99.145841
3636.000000	99.134490
3635.000000	99.121619
3634.000000	99.108769
3633.000000	99.097487
3632.000000	99.089363
3631.000000	99.085302
3630.000000	99.084576
3629.000000	99.084658
3628.000000	99.082159
3627.000000	99.075931
3626.000000	99.068340
3625.000000	99.062353
3624.000000	99.059409
3623.000000	99.060009
3622.000000	99.064562
3621.000000	99.073002
3620.000000	99.083762
3619.000000	99.093774
3618.000000	99.100542
3617.000000	99.104241
3616.000000	99.106875
3615.000000	99.110081
3614.000000	99.114188
3613.000000	99.118739
3612.000000	99.123691
3611.000000	99.130069
3610.000000	99.139047
3609.000000	99.150025
3608.000000	99.159747
3607.000000	99.164329
3606.000000	99.162650
3605.000000	99.157271
3604.000000	99.152307
3603.000000	99.150901
3602.000000	99.153922
3601.000000	99.160242
3600.000000	99.167866
3599.000000	99.174761
3598.000000	99.179271
3597.000000	99.180867
3596.000000	99.180853
3595.000000	99.181590
3594.000000	99.183949
3593.000000	99.186054
3592.000000	99.185695
3591.000000	99.183327
3590.000000	99.182200
3589.000000	99.185418
3588.000000	99.192484
3587.000000	99.199124
3586.000000	99.201872
3585.000000	99.201435
3584.000000	99.200713
3583.000000	99.201411
3582.000000	99.202968
3581.000000	99.203896
3580.000000	99.203630
3579.000000	99.203224
3578.000000	99.204418
3577.000000	99.208072
3576.000000	99.213381
3575.000000	99.218385
3574.000000	99.221371
3573.000000	99.221836
3572.000000	99.220455
3571.000000	99.218427
3570.000000	99.216728
3569.000000	99.215565
3568.000000	99.214323
3567.000000	99.212260
3566.000000	99.209580
3565.000000	99.207571
3564.000000	99.207400
3563.000000	99.208968
3562.000000	99.211043
3561.000000	99.212441
3560.000000	99.213152
3559.000000	99.214221
3558.000000	99.216410
3557.000000	99.219061
3556.000000	99.220585
3555.000000	99.220080
3554.000000	99.218266
3553.000000	99.216679
3552.000000	99.215952
3551.000000	99.215334
3550.000000	99.214012
3549.000000	99.212314
3548.000000	99.211367
3547.000000	99.211791
3546.000000	99.213049
3545.000000	99.214142
3544.000000	99.214785
3543.000000	99.215463
3542.000000	99.216506
3541.000000	99.217558
3540.000000	99.217973
3539.000000	99.217631
3538.000000	99.217236
3537.000000	99.217703
3536.000000	99.219189
3535.000000	99.220890
3534.000000	99.221847
3533.000000	99.221962
3532.000000	99.222049
3531.000000	99.222999
3530.000000	99.224931
3529.000000	99.227071
3528.000000	99.228392
3527.000000	99.228529
3526.000000	99.228077
3525.000000	99.228113
3524.000000	99.229275
3523.000000	99.231365
3522.000000	99.233664
3521.000000	99.235513
3520.000000	99.236591
3519.000000	99.236843
3518.000000	99.236471
3517.000000	99.235964
3516.000000	99.235870
3515.000000	99.236383
3514.000000	99.237218
3513.000000	99.237959
3512.000000	99.238486
3511.000000	99.239068
3510.000000	99.240046
3509.000000	99.241476
3508.000000	99.243004
3507.000000	99.244067
3506.000000	99.244314
3505.000000	99.243876
3504.000000	99.243244
3503.000000	99.242781
3502.000000	99.242378
3501.000000	99.241709
3500.000000	99.240697
3499.000000	99.239640
3498.000000	99.238972
3497.000000	99.238985
3496.000000	99.239702
3495.000000	99.240850
3494.000000	99.241929
3493.000000	99.242487
3492.000000	99.242445
3491.000000	99.242123
3490.000000	99.241894
3489.000000	99.241787
3488.000000	99.241544
3487.000000	99.241041
3486.000000	99.240512
3485.000000	99.240306
3484.000000	99.240519
3483.000000	99.240873
3482.000000	99.240892
3481.000000	99.240205
3480.000000	99.238855
3479.000000	99.237399
3478.000000	99.236587
3477.000000	99.236758
3476.000000	99.237609
3475.000000	99.238444
3474.000000	99.238791
3473.000000	99.238660
3472.000000	99.238240
3471.000000	99.237598
3470.000000	99.236758
3469.000000	99.235966
3468.000000	99.235633
3467.000000	99.235931
3466.000000	99.236551
3465.000000	99.236950
3464.000000	99.236847
3463.000000	99.236398
3462.000000	99.235962
3461.000000	99.235771
3460.000000	99.235835
3459.000000	99.236055
3458.000000	99.236314
3457.000000	99.236464
3456.000000	99.236406
3455.000000	99.236325
3454.000000	99.236745
3453.000000	99.238061
3452.000000	99.239958
3451.000000	99.241537
3450.000000	99.242191
3449.000000	99.242190
3448.000000	99.242146
3447.000000	99.242033
3446.000000	99.241132
3445.000000	99.238997
3444.000000	99.236035
3443.000000	99.233149
3442.000000	99.231126
3441.000000	99.230490
3440.000000	99.231495
3439.000000	99.233745
3438.000000	99.235880
3437.000000	99.236358
3436.000000	99.234894
3435.000000	99.232852
3434.000000	99.232040
3433.000000	99.233123
3432.000000	99.235386
3431.000000	99.237670
3430.000000	99.239212
3429.000000	99.239739
3428.000000	99.239211
3427.000000	99.237716
3426.000000	99.235485
3425.000000	99.232931
3424.000000	99.230674
3423.000000	99.229219
3422.000000	99.228373
3421.000000	99.227216
3420.000000	99.225118
3419.000000	99.222641
3418.000000	99.220826
3417.000000	99.219743
3416.000000	99.218621
3415.000000	99.217516
3414.000000	99.217795
3413.000000	99.220240
3412.000000	99.223464
3411.000000	99.225182
3410.000000	99.224951
3409.000000	99.224545
3408.000000	99.225619
3407.000000	99.227927
3406.000000	99.230174
3405.000000	99.231828
3404.000000	99.233447
3403.000000	99.235525
3402.000000	99.237695
3401.000000	99.239135
3400.000000	99.239342
3399.000000	99.238353
3398.000000	99.236532
3397.000000	99.234443
3396.000000	99.232859
3395.000000	99.232579
3394.000000	99.233927
3393.000000	99.236357
3392.000000	99.238694
3391.000000	99.240017
3390.000000	99.240233
3389.000000	99.239806
3388.000000	99.239155
3387.000000	99.238559
3386.000000	99.238442
3385.000000	99.239257
3384.000000	99.240924
3383.000000	99.242665
3382.000000	99.243658
3381.000000	99.243762
3380.000000	99.243509
3379.000000	99.243583
3378.000000	99.244483
3377.000000	99.246462
3376.000000	99.249405
3375.000000	99.252661
3374.000000	99.255270
3373.000000	99.256612
3372.000000	99.256727
3371.000000	99.256073
3370.000000	99.255109
3369.000000	99.254100
3368.000000	99.253244
3367.000000	99.252813
3366.000000	99.253075
3365.000000	99.254153
3364.000000	99.255902
3363.000000	99.257917
3362.000000	99.259766
3361.000000	99.261331
3360.000000	99.262882
3359.000000	99.264642
3358.000000	99.266328
3357.000000	99.267333
3356.000000	99.267456
3355.000000	99.267283
3354.000000	99.267670
3353.000000	99.268863
3352.000000	99.270397
3351.000000	99.271785
3350.000000	99.272999
3349.000000	99.274130
3348.000000	99.274937
3347.000000	99.275073
3346.000000	99.274591
3345.000000	99.273961
3344.000000	99.273568
3343.000000	99.273494
3342.000000	99.273785
3341.000000	99.274581
3340.000000	99.275781
3339.000000	99.276844
3338.000000	99.277290
3337.000000	99.277356
3336.000000	99.277806
3335.000000	99.278968
3334.000000	99.280231
3333.000000	99.280691
3332.000000	99.280132
3331.000000	99.279127
3330.000000	99.278320
3329.000000	99.277910
3328.000000	99.277935
3327.000000	99.278594
3326.000000	99.279937
3325.000000	99.281440
3324.000000	99.282354
3323.000000	99.282510
3322.000000	99.282489
3321.000000	99.282870
3320.000000	99.283605
3319.000000	99.284328
3318.000000	99.285073
3317.000000	99.286370
3316.000000	99.288616
3315.000000	99.291525
3314.000000	99.294163
3313.000000	99.295581
3312.000000	99.295473
3311.000000	99.294358
3310.000000	99.293259
3309.000000	99.292912
3308.000000	99.293242
3307.000000	99.293633
3306.000000	99.293628
3305.000000	99.293343
3304.000000	99.293261
3303.000000	99.293679
3302.000000	99.294458
3301.000000	99.295236
3300.000000	99.295807
3299.000000	99.296250
3298.000000	99.296725
3297.000000	99.297237
3296.000000	99.297648
3295.000000	99.297896
3294.000000	99.298097
3293.000000	99.298424
3292.000000	99.298921
3291.000000	99.299484
3290.000000	99.299981
3289.000000	99.300364
3288.000000	99.300675
3287.000000	99.300987
3286.000000	99.301364
3285.000000	99.301827
3284.000000	99.302357
3283.000000	99.302911
3282.000000	99.303438
3281.000000	99.303906
3280.000000	99.304314
3279.000000	99.304683
3278.000000	99.305044
3277.000000	99.305423
3276.000000	99.305825
3275.000000	99.306247
3274.000000	99.306682
3273.000000	99.307129
3272.000000	99.307594
3271.000000	99.308087
3270.000000	99.308613
3269.000000	99.309172
3268.000000	99.309754
3267.000000	99.310360
3266.000000	99.311011
3265.000000	99.311731
3264.000000	99.312509
3263.000000	99.313285
3262.000000	99.313976
3261.000000	99.314528
3260.000000	99.314966
3259.000000	99.315402
3258.000000	99.315956
3257.000000	99.316680
3256.000000	99.317511
3255.000000	99.318340
3254.000000	99.319134
3253.000000	99.319942
3252.000000	99.320813
3251.000000	99.321736
3250.000000	99.322696
3249.000000	99.323714
3248.000000	99.324747
3247.000000	99.325613
3246.000000	99.326135
3245.000000	99.326368
3244.000000	99.326538
3243.000000	99.326769
3242.000000	99.327005
3241.000000	99.327209
3240.000000	99.327514
3239.000000	99.328096
3238.000000	99.328959
3237.000000	99.329894
3236.000000	99.330647
3235.000000	99.331110
3234.000000	99.331417
3233.000000	99.331946
3232.000000	99.333176
3231.000000	99.335391
3230.000000	99.338319
3229.000000	99.341024
3228.000000	99.342443
3227.000000	99.342168
3226.000000	99.340731
3225.000000	99.339198
3224.000000	99.338324
3223.000000	99.338223
3222.000000	99.338636
3221.000000	99.339237
3220.000000	99.339754
3219.000000	99.340112
3218.000000	99.340562
3217.000000	99.341440
3216.000000	99.342666
3215.000000	99.343675
3214.000000	99.344007
3213.000000	99.343813
3212.000000	99.343599
3211.000000	99.343637
3210.000000	99.343831
3209.000000	99.344057
3208.000000	99.344386
3207.000000	99.345006
3206.000000	99.346147
3205.000000	99.348083
3204.000000	99.350939
3203.000000	99.354317
3202.000000	99.357228
3201.000000	99.358739
3200.000000	99.358733
3199.000000	99.358049
3198.000000	99.357760
3197.000000	99.358124
3196.000000	99.358467
3195.000000	99.358163
3194.000000	99.357511
3193.000000	99.357450
3192.000000	99.358474
3191.000000	99.360188
3190.000000	99.361926
3189.000000	99.363499
3188.000000	99.365133
3187.000000	99.366957
3186.000000	99.368833
3185.000000	99.370526
3184.000000	99.371863
3183.000000	99.372843
3182.000000	99.373722
3181.000000	99.374851
3180.000000	99.376256
3179.000000	99.377510
3178.000000	99.378233
3177.000000	99.378584
3176.000000	99.379104
3175.000000	99.380093
3174.000000	99.381356
3173.000000	99.382556
3172.000000	99.383645
3171.000000	99.384818
3170.000000	99.386178
3169.000000	99.387577
3168.000000	99.388790
3167.000000	99.389752
3166.000000	99.390578
3165.000000	99.391425
3164.000000	99.392378
3163.000000	99.393429
3162.000000	99.394529
3161.000000	99.395609
3160.000000	99.396627
3159.000000	99.397599
3158.000000	99.398591
3157.000000	99.399650
3156.000000	99.400751
3155.000000	99.401825
3154.000000	99.402844
3153.000000	99.403856
3152.000000	99.404909
3151.000000	99.405974
3150.000000	99.406974
3149.000000	99.407869
3148.000000	99.408690
3147.000000	99.409510
3146.000000	99.410381
3145.000000	99.411328
3144.000000	99.412341
3143.000000	99.413375
3142.000000	99.414344
3141.000000	99.415160
3140.000000	99.415784
3139.000000	99.416277
3138.000000	99.416809
3137.000000	99.417559
3136.000000	99.418582
3135.000000	99.419754
3134.000000	99.420913
3133.000000	99.422080
3132.000000	99.423420
3131.000000	99.424960
3130.000000	99.426422
3129.000000	99.427443
3128.000000	99.427914
3127.000000	99.428043
3126.000000	99.428183
3125.000000	99.428597
3124.000000	99.429336
3123.000000	99.430252
3122.000000	99.431148
3121.000000	99.431974
3120.000000	99.432828
3119.000000	99.433766
3118.000000	99.434703
3117.000000	99.435583
3116.000000	99.436510
3115.000000	99.437602
3114.000000	99.438744
3113.000000	99.439642
3112.000000	99.440154
3111.000000	99.440505
3110.000000	99.441092
3109.000000	99.442141
3108.000000	99.443590
3107.000000	99.445262
3106.000000	99.447004
3105.000000	99.448641
3104.000000	99.449926
3103.000000	99.450698
3102.000000	99.451079
3101.000000	99.451412
3100.000000	99.451938
3099.000000	99.452624
3098.000000	99.453315
3097.000000	99.453936
3096.000000	99.454535
3095.000000	99.455246
3094.000000	99.456233
3093.000000	99.457549
3092.000000	99.458950
3091.000000	99.459985
3090.000000	99.460464
3089.000000	99.460788
3088.000000	99.461628
3087.000000	99.463295
3086.000000	99.465568
3085.000000	99.467947
3084.000000	99.469980
3083.000000	99.471319
3082.000000	99.471822
3081.000000	99.471785
3080.000000	99.471834
3079.000000	99.472338
3078.000000	99.473081
3077.000000	99.473654
3076.000000	99.474040
3075.000000	99.474629
3074.000000	99.475672
3073.000000	99.476966
3072.000000	99.478130
3071.000000	99.479070
3070.000000	99.479990
3069.000000	99.481026
3068.000000	99.482056
3067.000000	99.482896
3066.000000	99.483551
3065.000000	99.484201
3064.000000	99.484977
3063.000000	99.485843
3062.000000	99.486686
3061.000000	99.487468
3060.000000	99.488260
3059.000000	99.489137
3058.000000	99.490064
3057.000000	99.490903
3056.000000	99.491550
3055.000000	99.492043
3054.000000	99.492502
3053.000000	99.492984
3052.000000	99.493434
3051.000000	99.493784
3050.000000	99.494048
3049.000000	99.494350
3048.000000	99.494837
3047.000000	99.495570
3046.000000	99.496476
3045.000000	99.497347
3044.000000	99.497955
3043.000000	99.498201
3042.000000	99.498183
3041.000000	99.498173
3040.000000	99.498407
3039.000000	99.498947
3038.000000	99.499719
3037.000000	99.500610
3036.000000	99.501492
3035.000000	99.502200
3034.000000	99.502595
3033.000000	99.502700
3032.000000	99.502717
3031.000000	99.502867
3030.000000	99.503242
3029.000000	99.503784
3028.000000	99.504310
3027.000000	99.504544
3026.000000	99.504300
3025.000000	99.503735
3024.000000	99.503297
3023.000000	99.503338
3022.000000	99.503884
3021.000000	99.504869
3020.000000	99.506407
3019.000000	99.508583
3018.000000	99.510958
3017.000000	99.512597
3016.000000	99.512801
3015.000000	99.511768
3014.000000	99.510385
3013.000000	99.509340
3012.000000	99.508567
3011.000000	99.507608
3010.000000	99.506340
3009.000000	99.505276
3008.000000	99.505282
3007.000000	99.507127
3006.000000	99.511077
3005.000000	99.516554
3004.000000	99.522179
3003.000000	99.526616
3002.000000	99.529414
3001.000000	99.530799
3000.000000	99.530800
2999.000000	99.529102
2998.000000	99.526060
2997.000000	99.523337
2996.000000	99.522775
2995.000000	99.524558
2994.000000	99.526876
2993.000000	99.527711
2992.000000	99.526954
2991.000000	99.526458
2990.000000	99.528006
2989.000000	99.531546
2988.000000	99.535618
2987.000000	99.539285
2986.000000	99.543044
2985.000000	99.547621
2984.000000	99.552575
2983.000000	99.556732
2982.000000	99.559714
2981.000000	99.562373
2980.000000	99.565758
2979.000000	99.570115
2978.000000	99.574688
2977.000000	99.577967
2976.000000	99.578479
2975.000000	99.576262
2974.000000	99.573560
2973.000000	99.573007
2972.000000	99.574802
2971.000000	99.576681
2970.000000	99.576784
2969.000000	99.575470
2968.000000	99.574071
2967.000000	99.573207
2966.000000	99.573139
2965.000000	99.574627
2964.000000	99.578055
2963.000000	99.582223
2962.000000	99.585179
2961.000000	99.585974
2960.000000	99.584699
2959.000000	99.581491
2958.000000	99.577003
2957.000000	99.573571
2956.000000	99.574009
2955.000000	99.578741
2954.000000	99.585014
2953.000000	99.589442
2952.000000	99.590647
2951.000000	99.589435
2950.000000	99.587593
2949.000000	99.586754
2948.000000	99.587180
2947.000000	99.587186
2946.000000	99.584973
2945.000000	99.581670
2944.000000	99.581269
2943.000000	99.586581
2942.000000	99.596058
2941.000000	99.605312
2940.000000	99.611322
2939.000000	99.614408
2938.000000	99.616678
2937.000000	99.619926
2936.000000	99.624958
2935.000000	99.631705
2934.000000	99.639174
2933.000000	99.645575
2932.000000	99.649230
2931.000000	99.649862
2930.000000	99.649094
2929.000000	99.649377
2928.000000	99.652033
2927.000000	99.656606
2926.000000	99.662152
2925.000000	99.668256
2924.000000	99.674085
2923.000000	99.677572
2922.000000	99.677170
2921.000000	99.674237
2920.000000	99.672098
2919.000000	99.672386
2918.000000	99.673407
2917.000000	99.672342
2916.000000	99.667818
2915.000000	99.660221
2914.000000	99.651061
2913.000000	99.642731
2912.000000	99.637497
2911.000000	99.635492
2910.000000	99.634176
2909.000000	99.630514
2908.000000	99.623569
2907.000000	99.614797
2906.000000	99.606534
2905.000000	99.600497
2904.000000	99.597162
2903.000000	99.595869
2902.000000	99.595747
2901.000000	99.596790
2900.000000	99.599383
2899.000000	99.602998
2898.000000	99.606305
2897.000000	99.608814
2896.000000	99.611205
2895.000000	99.613371
2894.000000	99.613327
2893.000000	99.609424
2892.000000	99.603029
2891.000000	99.597734
2890.000000	99.595822
2889.000000	99.596510
2888.000000	99.597559
2887.000000	99.597725
2886.000000	99.597310
2885.000000	99.597072
2884.000000	99.597337
2883.000000	99.598036
2882.000000	99.599084
2881.000000	99.600519
2880.000000	99.602402
2879.000000	99.604744
2878.000000	99.607481
2877.000000	99.610342
2876.000000	99.612676
2875.000000	99.613714
2874.000000	99.613283
2873.000000	99.612122
2872.000000	99.611283
2871.000000	99.611306
2870.000000	99.612121
2869.000000	99.613274
2868.000000	99.613843
2867.000000	99.612730
2866.000000	99.610112
2865.000000	99.608455
2864.000000	99.610712
2863.000000	99.617068
2862.000000	99.624216
2861.000000	99.628669
2860.000000	99.630297
2859.000000	99.631562
2858.000000	99.633974
2857.000000	99.636460
2856.000000	99.637269
2855.000000	99.636296
2854.000000	99.635094
2853.000000	99.635214
2852.000000	99.636876
2851.000000	99.638810
2850.000000	99.639105
2849.000000	99.636612
2848.000000	99.632033
2847.000000	99.627661
2846.000000	99.625668
2845.000000	99.626529
2844.000000	99.628990
2843.000000	99.631286
2842.000000	99.632195
2841.000000	99.631112
2840.000000	99.627713
2839.000000	99.622224
2838.000000	99.616072
2837.000000	99.611518
2836.000000	99.609908
2835.000000	99.610419
2834.000000	99.611000
2833.000000	99.610624
2832.000000	99.610002
2831.000000	99.609942
2830.000000	99.609940
2829.000000	99.608975
2828.000000	99.607147
2827.000000	99.605748
2826.000000	99.605848
2825.000000	99.607438
2824.000000	99.609909
2823.000000	99.612777
2822.000000	99.615698
2821.000000	99.618141
2820.000000	99.619495
2819.000000	99.619576
2818.000000	99.618823
2817.000000	99.617925
2816.000000	99.617281
2815.000000	99.616868
2814.000000	99.616612
2813.000000	99.616663
2812.000000	99.617107
2811.000000	99.617553
2810.000000	99.617312
2809.000000	99.616136
2808.000000	99.614647
2807.000000	99.613919
2806.000000	99.614563
2805.000000	99.616235
2804.000000	99.617925
2803.000000	99.618811
2802.000000	99.618932
2801.000000	99.619025
2800.000000	99.619729
2799.000000	99.621042
2798.000000	99.622517
2797.000000	99.623848
2796.000000	99.625085
2795.000000	99.626293
2794.000000	99.627287
2793.000000	99.627828
2792.000000	99.627964
2791.000000	99.628055
2790.000000	99.628501
2789.000000	99.629439
2788.000000	99.630713
2787.000000	99.632027
2786.000000	99.633152
2785.000000	99.634046
2784.000000	99.634795
2783.000000	99.635525
2782.000000	99.636351
2781.000000	99.637362
2780.000000	99.638585
2779.000000	99.639880
2778.000000	99.640951
2777.000000	99.641583
2776.000000	99.641864
2775.000000	99.642111
2774.000000	99.642579
2773.000000	99.643253
2772.000000	99.643941
2771.000000	99.644468
2770.000000	99.644820
2769.000000	99.645147
2768.000000	99.645662
2767.000000	99.646486
2766.000000	99.647560
2765.000000	99.648699
2764.000000	99.649717
2763.000000	99.650511
2762.000000	99.651103
2761.000000	99.651625
2760.000000	99.652237
2759.000000	99.652988
2758.000000	99.653764
2757.000000	99.654376
2756.000000	99.654749
2755.000000	99.654975
2754.000000	99.655221
2753.000000	99.655580
2752.000000	99.656018
2751.000000	99.656457
2750.000000	99.656856
2749.000000	99.657237
2748.000000	99.657633
2747.000000	99.658040
2746.000000	99.658421
2745.000000	99.658743
2744.000000	99.658997
2743.000000	99.659177
2742.000000	99.659284
2741.000000	99.659350
2740.000000	99.659417
2739.000000	99.659509
2738.000000	99.659620
2737.000000	99.659732
2736.000000	99.659842
2735.000000	99.659952
2734.000000	99.660064
2733.000000	99.660183
2732.000000	99.660311
2731.000000	99.660440
2730.000000	99.660559
2729.000000	99.660654
2728.000000	99.660718
2727.000000	99.660755
2726.000000	99.660777
2725.000000	99.660793
2724.000000	99.660804
2723.000000	99.660803
2722.000000	99.660781
2721.000000	99.660738
2720.000000	99.660683
2719.000000	99.660626
2718.000000	99.660565
2717.000000	99.660487
2716.000000	99.660379
2715.000000	99.660233
2714.000000	99.660054
2713.000000	99.659845
2712.000000	99.659611
2711.000000	99.659348
2710.000000	99.659051
2709.000000	99.658717
2708.000000	99.658344
2707.000000	99.657936
2706.000000	99.657495
2705.000000	99.657026
2704.000000	99.656535
2703.000000	99.656028
2702.000000	99.655496
2701.000000	99.654949
2700.000000	99.654459
2699.000000	99.654123
2698.000000	99.653925
2697.000000	99.653689
2696.000000	99.653253
2695.000000	99.652657
2694.000000	99.652111
2693.000000	99.651788
2692.000000	99.651721
2691.000000	99.651768
2690.000000	99.651615
2689.000000	99.650937
2688.000000	99.649731
2687.000000	99.648452
2686.000000	99.647681
2685.000000	99.647643
2684.000000	99.648025
2683.000000	99.648215
2682.000000	99.647744
2681.000000	99.646663
2680.000000	99.645631
2679.000000	99.645406
2678.000000	99.645982
2677.000000	99.646303
2676.000000	99.645230
2675.000000	99.642799
2674.000000	99.640335
2673.000000	99.639131
2672.000000	99.639186
2671.000000	99.639385
2670.000000	99.638723
2669.000000	99.637154
2668.000000	99.635340
2667.000000	99.634012
2666.000000	99.633582
2665.000000	99.634042
2664.000000	99.635174
2663.000000	99.636809
2662.000000	99.638879
2661.000000	99.641296
2660.000000	99.643753
2659.000000	99.645718
2658.000000	99.646731
2657.000000	99.646667
2656.000000	99.645840
2655.000000	99.644936
2654.000000	99.644740
2653.000000	99.645692
2652.000000	99.647566
2651.000000	99.649580
2650.000000	99.650863
2649.000000	99.651027
2648.000000	99.650457
2647.000000	99.650063
2646.000000	99.650540
2645.000000	99.651662
2644.000000	99.652454
2643.000000	99.652227
2642.000000	99.651289
2641.000000	99.650571
2640.000000	99.650629
2639.000000	99.651288
2638.000000	99.652175
2637.000000	99.653237
2636.000000	99.654566
2635.000000	99.656025
2634.000000	99.657339
2633.000000	99.658390
2632.000000	99.659207
2631.000000	99.659752
2630.000000	99.659954
2629.000000	99.659948
2628.000000	99.660050
2627.000000	99.660454
2626.000000	99.661058
2625.000000	99.661609
2624.000000	99.661941
2623.000000	99.662074
2622.000000	99.662155
2621.000000	99.662365
2620.000000	99.662782
2619.000000	99.663355
2618.000000	99.663935
2617.000000	99.664410
2616.000000	99.664771
2615.000000	99.665058
2614.000000	99.665316
2613.000000	99.665569
2612.000000	99.665843
2611.000000	99.666168
2610.000000	99.666558
2609.000000	99.666966
2608.000000	99.667277
2607.000000	99.667389
2606.000000	99.667317
2605.000000	99.667182
2604.000000	99.667119
2603.000000	99.667158
2602.000000	99.667251
2601.000000	99.667328
2600.000000	99.667340
2599.000000	99.667276
2598.000000	99.667152
2597.000000	99.666984
2596.000000	99.666792
2595.000000	99.666586
2594.000000	99.666372
2593.000000	99.666153
2592.000000	99.665936
2591.000000	99.665728
2590.000000	99.665529
2589.000000	99.665330
2588.000000	99.665122
2587.000000	99.664894
2586.000000	99.664643
2585.000000	99.664373
2584.000000	99.664105
2583.000000	99.663860
2582.000000	99.663645
2581.000000	99.663459
2580.000000	99.663292
2579.000000	99.663120
2578.000000	99.662908
2577.000000	99.662631
2576.000000	99.662294
2575.000000	99.661928
2574.000000	99.661585
2573.000000	99.661303
2572.000000	99.661092
2571.000000	99.660933
2570.000000	99.660767
2569.000000	99.660535
2568.000000	99.660219
2567.000000	99.659868
2566.000000	99.659560
2565.000000	99.659350
2564.000000	99.659254
2563.000000	99.659238
2562.000000	99.659212
2561.000000	99.659095
2560.000000	99.658881
2559.000000	99.658638
2558.000000	99.658429
2557.000000	99.658302
2556.000000	99.658299
2555.000000	99.658402
2554.000000	99.658474
2553.000000	99.658333
2552.000000	99.657941
2551.000000	99.657487
2550.000000	99.657246
2549.000000	99.657362
2548.000000	99.657775
2547.000000	99.658280
2546.000000	99.658678
2545.000000	99.658936
2544.000000	99.659206
2543.000000	99.659620
2542.000000	99.660090
2541.000000	99.660406
2540.000000	99.660527
2539.000000	99.660665
2538.000000	99.661002
2537.000000	99.661429
2536.000000	99.661694
2535.000000	99.661749
2534.000000	99.661827
2533.000000	99.662162
2532.000000	99.662689
2531.000000	99.663082
2530.000000	99.663097
2529.000000	99.662812
2528.000000	99.662547
2527.000000	99.662574
2526.000000	99.662906
2525.000000	99.663316
2524.000000	99.663511
2523.000000	99.663350
2522.000000	99.662917
2521.000000	99.662508
2520.000000	99.662428
2519.000000	99.662762
2518.000000	99.663340
2517.000000	99.663856
2516.000000	99.664150
2515.000000	99.664257
2514.000000	99.664286
2513.000000	99.664332
2512.000000	99.664447
2511.000000	99.664645
2510.000000	99.664875
2509.000000	99.665050
2508.000000	99.665148
2507.000000	99.665233
2506.000000	99.665374
2505.000000	99.665596
2504.000000	99.665943
2503.000000	99.666479
2502.000000	99.667167
2501.000000	99.667792
2500.000000	99.668146
2499.000000	99.668270
2498.000000	99.668423
2497.000000	99.668753
2496.000000	99.669121
2495.000000	99.669332
2494.000000	99.669415
2493.000000	99.669564
2492.000000	99.669867
2491.000000	99.670235
2490.000000	99.670568
2489.000000	99.670851
2488.000000	99.671038
2487.000000	99.671015
2486.000000	99.670772
2485.000000	99.670494
2484.000000	99.670374
2483.000000	99.670397
2482.000000	99.670461
2481.000000	99.670645
2480.000000	99.671100
2479.000000	99.671756
2478.000000	99.672441
2477.000000	99.673189
2476.000000	99.674154
2475.000000	99.675270
2474.000000	99.676261
2473.000000	99.676996
2472.000000	99.677704
2471.000000	99.678660
2470.000000	99.679811
2469.000000	99.680787
2468.000000	99.681269
2467.000000	99.681266
2466.000000	99.681123
2465.000000	99.681293
2464.000000	99.681985
2463.000000	99.683082
2462.000000	99.684296
2461.000000	99.685385
2460.000000	99.686249
2459.000000	99.686848
2458.000000	99.687175
2457.000000	99.687347
2456.000000	99.687582
2455.000000	99.688021
2454.000000	99.688648
2453.000000	99.689370
2452.000000	99.690100
2451.000000	99.690772
2450.000000	99.691347
2449.000000	99.691845
2448.000000	99.692348
2447.000000	99.692926
2446.000000	99.693579
2445.000000	99.694261
2444.000000	99.694932
2443.000000	99.695573
2442.000000	99.696181
2441.000000	99.696764
2440.000000	99.697333
2439.000000	99.697894
2438.000000	99.698438
2437.000000	99.698958
2436.000000	99.699450
2435.000000	99.699916
2434.000000	99.700360
2433.000000	99.700789
2432.000000	99.701209
2431.000000	99.701623
2430.000000	99.702030
2429.000000	99.702428
2428.000000	99.702819
2427.000000	99.703205
2426.000000	99.703588
2425.000000	99.703968
2424.000000	99.704344
2423.000000	99.704713
2422.000000	99.705075
2421.000000	99.705429
2420.000000	99.705769
2419.000000	99.706086
2418.000000	99.706368
2417.000000	99.706613
2416.000000	99.706839
2415.000000	99.707081
2414.000000	99.707353
2413.000000	99.707629
2412.000000	99.707848
2411.000000	99.707952
2410.000000	99.707908
2409.000000	99.707722
2408.000000	99.707485
2407.000000	99.707349
2406.000000	99.707399
2405.000000	99.707553
2404.000000	99.707614
2403.000000	99.707492
2402.000000	99.707276
2401.000000	99.707118
2400.000000	99.707097
2399.000000	99.707192
2398.000000	99.707296
2397.000000	99.707249
2396.000000	99.706925
2395.000000	99.706324
2394.000000	99.705621
2393.000000	99.705061
2392.000000	99.704789
2391.000000	99.704732
2390.000000	99.704691
2389.000000	99.704581
2388.000000	99.704513
2387.000000	99.704532
2386.000000	99.704361
2385.000000	99.703642
2384.000000	99.702404
2383.000000	99.701090
2382.000000	99.700081
2381.000000	99.699341
2380.000000	99.698664
2379.000000	99.698032
2378.000000	99.697583
2377.000000	99.697293
2376.000000	99.696909
2375.000000	99.696195
2374.000000	99.695108
2373.000000	99.693740
2372.000000	99.692272
2371.000000	99.690972
2370.000000	99.690025
2369.000000	99.689313
2368.000000	99.688571
2367.000000	99.687806
2366.000000	99.687350
2365.000000	99.687394
2364.000000	99.687712
2363.000000	99.687833
2362.000000	99.687445
2361.000000	99.686546
2360.000000	99.685384
2359.000000	99.684359
2358.000000	99.683738
2357.000000	99.683445
2356.000000	99.683118
2355.000000	99.682438
2354.000000	99.681414
2353.000000	99.680406
2352.000000	99.679813
2351.000000	99.679744
2350.000000	99.679970
2349.000000	99.680146
2348.000000	99.680073
2347.000000	99.679759
2346.000000	99.679388
2345.000000	99.679186
2344.000000	99.679182
2343.000000	99.679144
2342.000000	99.678932
2341.000000	99.678736
2340.000000	99.678792
2339.000000	99.679004
2338.000000	99.679046
2337.000000	99.678836
2336.000000	99.678654
2335.000000	99.678728
2334.000000	99.678878
2333.000000	99.678772
2332.000000	99.678375
2331.000000	99.677962
2330.000000	99.677731
2329.000000	99.677740
2328.000000	99.678054
2327.000000	99.678725
2326.000000	99.679599
2325.000000	99.680304
2324.000000	99.680559
2323.000000	99.680351
2322.000000	99.680026
2321.000000	99.680143
2320.000000	99.681104
2319.000000	99.682741
2318.000000	99.684378
2317.000000	99.685527
2316.000000	99.686138
2315.000000	99.686160
2314.000000	99.685242
2313.000000	99.683259
2312.000000	99.680881
2311.000000	99.679207
2310.000000	99.678647
2309.000000	99.678773
2308.000000	99.679000
2307.000000	99.679200
2306.000000	99.679543
2305.000000	99.679988
2304.000000	99.680190
2303.000000	99.679908
2302.000000	99.679302
2301.000000	99.678802
2300.000000	99.678690
2299.000000	99.678874
2298.000000	99.679065
2297.000000	99.679081
2296.000000	99.678929
2295.000000	99.678675
2294.000000	99.678362
2293.000000	99.678058
2292.000000	99.677865
2291.000000	99.677804
2290.000000	99.677778
2289.000000	99.677662
2288.000000	99.677423
2287.000000	99.677108
2286.000000	99.676777
2285.000000	99.676468
2284.000000	99.676192
2283.000000	99.675937
2282.000000	99.675681
2281.000000	99.675424
2280.000000	99.675169
2279.000000	99.674910
2278.000000	99.674641
2277.000000	99.674363
2276.000000	99.674085
2275.000000	99.673816
2274.000000	99.673560
2273.000000	99.673317
2272.000000	99.673087
2271.000000	99.672870
2270.000000	99.672661
2269.000000	99.672451
2268.000000	99.672229
2267.000000	99.671990
2266.000000	99.671733
2265.000000	99.671463
2264.000000	99.671183
2263.000000	99.670895
2262.000000	99.670601
2261.000000	99.670304
2260.000000	99.670009
2259.000000	99.669720
2258.000000	99.669437
2257.000000	99.669155
2256.000000	99.668872
2255.000000	99.668592
2254.000000	99.668316
2253.000000	99.668046
2252.000000	99.667774
2251.000000	99.667497
2250.000000	99.667232
2249.000000	99.666988
2248.000000	99.666707
2247.000000	99.666344
2246.000000	99.665999
2245.000000	99.665836
2244.000000	99.665880
2243.000000	99.665952
2242.000000	99.665873
2241.000000	99.665672
2240.000000	99.665540
2239.000000	99.665589
2238.000000	99.665702
2237.000000	99.665641
2236.000000	99.665271
2235.000000	99.664691
2234.000000	99.664168
2233.000000	99.663923
2232.000000	99.663976
2231.000000	99.664111
2230.000000	99.664029
2229.000000	99.663568
2228.000000	99.662818
2227.000000	99.662044
2226.000000	99.661503
2225.000000	99.661328
2224.000000	99.661492
2223.000000	99.661829
2222.000000	99.662160
2221.000000	99.662474
2220.000000	99.662922
2219.000000	99.663579
2218.000000	99.664277
2217.000000	99.664771
2216.000000	99.665019
2215.000000	99.665157
2214.000000	99.665238
2213.000000	99.665155
2212.000000	99.664894
2211.000000	99.664668
2210.000000	99.664716
2209.000000	99.665008
2208.000000	99.665250
2207.000000	99.665195
2206.000000	99.664900
2205.000000	99.664669
2204.000000	99.664745
2203.000000	99.665091
2202.000000	99.665465
2201.000000	99.665649
2200.000000	99.665633
2199.000000	99.665539
2198.000000	99.665475
2197.000000	99.665469
2196.000000	99.665518
2195.000000	99.665633
2194.000000	99.665817
2193.000000	99.666056
2192.000000	99.666321
2191.000000	99.666571
2190.000000	99.666765
2189.000000	99.666897
2188.000000	99.666997
2187.000000	99.667101
2186.000000	99.667226
2185.000000	99.667363
2184.000000	99.667502
2183.000000	99.667637
2182.000000	99.667770
2181.000000	99.667903
2180.000000	99.668037
2179.000000	99.668176
2178.000000	99.668322
2177.000000	99.668475
2176.000000	99.668631
2175.000000	99.668788
2174.000000	99.668944
2173.000000	99.669098
2172.000000	99.669253
2171.000000	99.669414
2170.000000	99.669583
2169.000000	99.669762
2168.000000	99.669947
2167.000000	99.670135
2166.000000	99.670324
2165.000000	99.670514
2164.000000	99.670707
2163.000000	99.670909
2162.000000	99.671120
2161.000000	99.671339
2160.000000	99.671564
2159.000000	99.671794
2158.000000	99.672031
2157.000000	99.672277
2156.000000	99.672531
2155.000000	99.672790
2154.000000	99.673048
2153.000000	99.673301
2152.000000	99.673546
2151.000000	99.673790
2150.000000	99.674039
2149.000000	99.674299
2148.000000	99.674573
2147.000000	99.674862
2146.000000	99.675169
2145.000000	99.675493
2144.000000	99.675832
2143.000000	99.676179
2142.000000	99.676529
2141.000000	99.676880
2140.000000	99.677232
2139.000000	99.677585
2138.000000	99.677938
2137.000000	99.678287
2136.000000	99.678633
2135.000000	99.678973
2134.000000	99.679310
2133.000000	99.679647
2132.000000	99.679991
2131.000000	99.680347
2130.000000	99.680718
2129.000000	99.681104
2128.000000	99.681499
2127.000000	99.681903
2126.000000	99.682316
2125.000000	99.682742
2124.000000	99.683180
2123.000000	99.683629
2122.000000	99.684084
2121.000000	99.684541
2120.000000	99.684999
2119.000000	99.685457
2118.000000	99.685916
2117.000000	99.686375
2116.000000	99.686831
2115.000000	99.687280
2114.000000	99.687721
2113.000000	99.688158
2112.000000	99.688598
2111.000000	99.689045
2110.000000	99.689499
2109.000000	99.689954
2108.000000	99.690401
2107.000000	99.690837
2106.000000	99.691268
2105.000000	99.691699
2104.000000	99.692134
2103.000000	99.692567
2102.000000	99.692996
2101.000000	99.693424
2100.000000	99.693858
2099.000000	99.694304
2098.000000	99.694763
2097.000000	99.695233
2096.000000	99.695708
2095.000000	99.696188
2094.000000	99.696673
2093.000000	99.697164
2092.000000	99.697662
2091.000000	99.698163
2090.000000	99.698665
2089.000000	99.699162
2088.000000	99.699651
2087.000000	99.700130
2086.000000	99.700599
2085.000000	99.701062
2084.000000	99.701515
2083.000000	99.701938
2082.000000	99.702333
2081.000000	99.702756
2080.000000	99.703234
2079.000000	99.703685
2078.000000	99.703997
2077.000000	99.704158
2076.000000	99.704197
2075.000000	99.704069
2074.000000	99.703805
2073.000000	99.703736
2072.000000	99.704238
2071.000000	99.705216
2070.000000	99.706112
2069.000000	99.706527
2068.000000	99.706563
2067.000000	99.706535
2066.000000	99.706632
2065.000000	99.707020
2064.000000	99.707904
2063.000000	99.709264
2062.000000	99.710702
2061.000000	99.711746
2060.000000	99.712133
2059.000000	99.711771
2058.000000	99.710854
2057.000000	99.709952
2056.000000	99.709666
2055.000000	99.709994
2054.000000	99.710370
2053.000000	99.710447
2052.000000	99.710453
2051.000000	99.710603
2050.000000	99.710656
2049.000000	99.710374
2048.000000	99.709943
2047.000000	99.709534
2046.000000	99.708850
2045.000000	99.707586
2044.000000	99.706003
2043.000000	99.704618
2042.000000	99.703560
2041.000000	99.702663
2040.000000	99.702005
2039.000000	99.701871
2038.000000	99.702260
2037.000000	99.702806
2036.000000	99.703151
2035.000000	99.703062
2034.000000	99.702285
2033.000000	99.700674
2032.000000	99.698547
2031.000000	99.696638
2030.000000	99.695489
2029.000000	99.695087
2028.000000	99.695048
2027.000000	99.694891
2026.000000	99.694260
2025.000000	99.693088
2024.000000	99.691699
2023.000000	99.690578
2022.000000	99.689896
2021.000000	99.689424
2020.000000	99.688907
2019.000000	99.688337
2018.000000	99.687767
2017.000000	99.687097
2016.000000	99.686204
2015.000000	99.685114
2014.000000	99.683883
2013.000000	99.682452
2012.000000	99.680829
2011.000000	99.679290
2010.000000	99.678171
2009.000000	99.677498
2008.000000	99.676986
2007.000000	99.676354
2006.000000	99.675525
2005.000000	99.674548
2004.000000	99.673549
2003.000000	99.672723
2002.000000	99.672211
2001.000000	99.671942
2000.000000	99.671671
1999.000000	99.671229
1998.000000	99.670609
1997.000000	99.669861
1996.000000	99.669030
1995.000000	99.668183
1994.000000	99.667370
1993.000000	99.666583
1992.000000	99.665829
1991.000000	99.665195
1990.000000	99.664692
1989.000000	99.664134
1988.000000	99.663377
1987.000000	99.662645
1986.000000	99.662359
1985.000000	99.662631
1984.000000	99.663104
1983.000000	99.663262
1982.000000	99.662856
1981.000000	99.661943
1980.000000	99.660740
1979.000000	99.659535
1978.000000	99.658550
1977.000000	99.657819
1976.000000	99.657270
1975.000000	99.656896
1974.000000	99.656730
1973.000000	99.656715
1972.000000	99.656762
1971.000000	99.656881
1970.000000	99.657101
1969.000000	99.657248
1968.000000	99.656998
1967.000000	99.656247
1966.000000	99.655279
1965.000000	99.654488
1964.000000	99.654002
1963.000000	99.653732
1962.000000	99.653642
1961.000000	99.653792
1960.000000	99.654114
1959.000000	99.654298
1958.000000	99.654065
1957.000000	99.653482
1956.000000	99.652898
1955.000000	99.652562
1954.000000	99.652389
1953.000000	99.652129
1952.000000	99.651682
1951.000000	99.651161
1950.000000	99.650693
1949.000000	99.650242
1948.000000	99.649693
1947.000000	99.649049
1946.000000	99.648430
1945.000000	99.647829
1944.000000	99.647010
1943.000000	99.645830
1942.000000	99.644578
1941.000000	99.643748
1940.000000	99.643495
1939.000000	99.643528
1938.000000	99.643440
1937.000000	99.642906
1936.000000	99.641649
1935.000000	99.639621
1934.000000	99.637402
1933.000000	99.636114
1932.000000	99.636462
1931.000000	99.637830
1930.000000	99.638631
1929.000000	99.637826
1928.000000	99.635686
1927.000000	99.633160
1926.000000	99.630947
1925.000000	99.629388
1924.000000	99.628698
1923.000000	99.628697
1922.000000	99.628542
1921.000000	99.627401
1920.000000	99.625257
1919.000000	99.622672
1918.000000	99.619975
1917.000000	99.617177
1916.000000	99.614617
1915.000000	99.612930
1914.000000	99.612044
1913.000000	99.610828
1912.000000	99.608289
1911.000000	99.604918
1910.000000	99.602186
1909.000000	99.600573
1908.000000	99.598920
1907.000000	99.596120
1906.000000	99.592496
1905.000000	99.589212
1904.000000	99.586836
1903.000000	99.584966
1902.000000	99.582913
1901.000000	99.580149
1900.000000	99.576449
1899.000000	99.572268
1898.000000	99.568786
1897.000000	99.566971
1896.000000	99.566356
1895.000000	99.565139
1894.000000	99.561856
1893.000000	99.556807
1892.000000	99.551846
1891.000000	99.549145
1890.000000	99.549698
1889.000000	99.551991
1888.000000	99.552756
1887.000000	99.550044
1886.000000	99.544900
1885.000000	99.540116
1884.000000	99.537710
1883.000000	99.537691
1882.000000	99.539021
1881.000000	99.540796
1880.000000	99.542308
1879.000000	99.542752
1878.000000	99.541394
1877.000000	99.538100
1876.000000	99.533761
1875.000000	99.530135
1874.000000	99.528854
1873.000000	99.530025
1872.000000	99.532009
1871.000000	99.533294
1870.000000	99.534606
1869.000000	99.538082
1868.000000	99.543666
1867.000000	99.548331
1866.000000	99.549773
1865.000000	99.548530
1864.000000	99.546447
1863.000000	99.544715
1862.000000	99.543758
1861.000000	99.544139
1860.000000	99.546428
1859.000000	99.550394
1858.000000	99.555157
1857.000000	99.560066
1856.000000	99.564863
1855.000000	99.569247
1854.000000	99.573000
1853.000000	99.576466
1852.000000	99.580155
1851.000000	99.583956
1850.000000	99.587045
1849.000000	99.588858
1848.000000	99.589855
1847.000000	99.591014
1846.000000	99.592795
1845.000000	99.594902
1844.000000	99.596953
1843.000000	99.599160
1842.000000	99.602019
1841.000000	99.605445
1840.000000	99.608694
1839.000000	99.610996
1838.000000	99.612117
1837.000000	99.612524
1836.000000	99.612759
1835.000000	99.612901
1834.000000	99.612935
1833.000000	99.613293
1832.000000	99.614513
1831.000000	99.616259
1830.000000	99.617016
1829.000000	99.615990
1828.000000	99.614653
1827.000000	99.614626
1826.000000	99.615320
1825.000000	99.614686
1824.000000	99.611859
1823.000000	99.608094
1822.000000	99.604999
1821.000000	99.603421
1820.000000	99.604007
1819.000000	99.607076
1818.000000	99.611417
1817.000000	99.614363
1816.000000	99.613998
1815.000000	99.610998
1814.000000	99.607699
1813.000000	99.605696
1812.000000	99.604929
1811.000000	99.604450
1810.000000	99.603536
1809.000000	99.601921
1808.000000	99.599414
1807.000000	99.596327
1806.000000	99.594010
1805.000000	99.593882
1804.000000	99.595757
1803.000000	99.597973
1802.000000	99.599546
1801.000000	99.601323
1800.000000	99.604506
1799.000000	99.608505
1798.000000	99.611529
1797.000000	99.612616
1796.000000	99.612144
1795.000000	99.610864
1794.000000	99.609069
1793.000000	99.606649
1792.000000	99.603809
1791.000000	99.601344
1790.000000	99.600279
1789.000000	99.601132
1788.000000	99.603651
1787.000000	99.607315
1786.000000	99.611802
1785.000000	99.616789
1784.000000	99.621525
1783.000000	99.625414
1782.000000	99.628803
1781.000000	99.632054
1780.000000	99.634582
1779.000000	99.635474
1778.000000	99.635185
1777.000000	99.635501
1776.000000	99.637821
1775.000000	99.642321
1774.000000	99.648697
1773.000000	99.656833
1772.000000	99.665750
1771.000000	99.673267
1770.000000	99.678321
1769.000000	99.681950
1768.000000	99.685758
1767.000000	99.690089
1766.000000	99.693762
1765.000000	99.695728
1764.000000	99.696629
1763.000000	99.698777
1762.000000	99.704082
1761.000000	99.711089
1760.000000	99.716123
1759.000000	99.717056
1758.000000	99.714855
1757.000000	99.712251
1756.000000	99.710966
1755.000000	99.710062
1754.000000	99.707631
1753.000000	99.703332
1752.000000	99.699023
1751.000000	99.697068
1750.000000	99.697330
1749.000000	99.697731
1748.000000	99.697103
1747.000000	99.695663
1746.000000	99.693831
1745.000000	99.691950
1744.000000	99.690766
1743.000000	99.690870
1742.000000	99.692138
1741.000000	99.694316
1740.000000	99.697102
1739.000000	99.698984
1738.000000	99.698208
1737.000000	99.695165
1736.000000	99.692323
1735.000000	99.692252
1734.000000	99.694326
1733.000000	99.694715
1732.000000	99.692989
1731.000000	99.691835
1730.000000	99.692360
1729.000000	99.693332
1728.000000	99.693251
1727.000000	99.692043
1726.000000	99.690537
1725.000000	99.689462
1724.000000	99.689148
1723.000000	99.689071
1722.000000	99.688049
1721.000000	99.685445
1720.000000	99.681810
1719.000000	99.678353
1718.000000	99.675863
1717.000000	99.674399
1716.000000	99.673888
1715.000000	99.674066
1714.000000	99.674115
1713.000000	99.673191
1712.000000	99.671283
1711.000000	99.669124
1710.000000	99.667249
1709.000000	99.665418
1708.000000	99.663206
1707.000000	99.660772
1706.000000	99.658576
1705.000000	99.656603
1704.000000	99.654488
1703.000000	99.652238
1702.000000	99.650241
1701.000000	99.648895
1700.000000	99.648102
1699.000000	99.647266
1698.000000	99.646185
1697.000000	99.644839
1696.000000	99.642955
1695.000000	99.640615
1694.000000	99.638487
1693.000000	99.636925
1692.000000	99.635783
1691.000000	99.634782
1690.000000	99.633679
1689.000000	99.632272
1688.000000	99.630476
1687.000000	99.628431
1686.000000	99.626434
1685.000000	99.624842
1684.000000	99.623660
1683.000000	99.622413
1682.000000	99.620962
1681.000000	99.619337
1680.000000	99.617454
1679.000000	99.615422
1678.000000	99.613659
1677.000000	99.612568
1676.000000	99.612204
1675.000000	99.612088
1674.000000	99.611595
1673.000000	99.610613
1672.000000	99.609415
1671.000000	99.608301
1670.000000	99.607459
1669.000000	99.606660
1668.000000	99.605347
1667.000000	99.603345
1666.000000	99.601132
1665.000000	99.599539
1664.000000	99.599231
1663.000000	99.600019
1662.000000	99.600779
1661.000000	99.600633
1660.000000	99.599663
1659.000000	99.598427
1658.000000	99.597532
1657.000000	99.597292
1656.000000	99.597408
1655.000000	99.596704
1654.000000	99.593581
1653.000000	99.588546
1652.000000	99.585370
1651.000000	99.584838
1650.000000	99.584784
1649.000000	99.583977
1648.000000	99.582584
1647.000000	99.581593
1646.000000	99.581535
1645.000000	99.581965
1644.000000	99.582363
1643.000000	99.582710
1642.000000	99.583338
1641.000000	99.584149
1640.000000	99.584390
1639.000000	99.583380
1638.000000	99.581232
1637.000000	99.579096
1636.000000	99.578671
1635.000000	99.580784
1634.000000	99.584488
1633.000000	99.588145
1632.000000	99.590174
1631.000000	99.589423
1630.000000	99.586051
1629.000000	99.581913
1628.000000	99.579102
1627.000000	99.578225
1626.000000	99.579120
1625.000000	99.582165
1624.000000	99.587470
1623.000000	99.592960
1622.000000	99.596096
1621.000000	99.597650
1620.000000	99.600516
1619.000000	99.606179
1618.000000	99.613236
1617.000000	99.618493
1616.000000	99.620578
1615.000000	99.621773
1614.000000	99.624234
1613.000000	99.628036
1612.000000	99.632373
1611.000000	99.636170
1610.000000	99.638471
1609.000000	99.639507
1608.000000	99.641316
1607.000000	99.646067
1606.000000	99.653567
1605.000000	99.661277
1604.000000	99.667208
1603.000000	99.671635
1602.000000	99.675652
1601.000000	99.679179
1600.000000	99.681279
1599.000000	99.681935
1598.000000	99.682580
1597.000000	99.684795
1596.000000	99.688713
1595.000000	99.692791
1594.000000	99.695409
1593.000000	99.696693
1592.000000	99.698290
1591.000000	99.701219
1590.000000	99.704533
1589.000000	99.706494
1588.000000	99.706702
1587.000000	99.706361
1586.000000	99.706799
1585.000000	99.708468
1584.000000	99.711022
1583.000000	99.713635
1582.000000	99.714880
1581.000000	99.713656
1580.000000	99.710719
1579.000000	99.708498
1578.000000	99.708737
1577.000000	99.710424
1576.000000	99.710388
1575.000000	99.707751
1574.000000	99.705325
1573.000000	99.705439
1572.000000	99.708732
1571.000000	99.714248
1570.000000	99.718422
1569.000000	99.716947
1568.000000	99.710547
1567.000000	99.704420
1566.000000	99.702067
1565.000000	99.702979
1564.000000	99.704331
1563.000000	99.704505
1562.000000	99.704129
1561.000000	99.704317
1560.000000	99.705114
1559.000000	99.704199
1558.000000	99.699172
1557.000000	99.694678
1556.000000	99.693317
1555.000000	99.692823
1554.000000	99.690073
1553.000000	99.684098
1552.000000	99.677042
1551.000000	99.671185
1550.000000	99.666182
1549.000000	99.660098
1548.000000	99.652508
1547.000000	99.645247
1546.000000	99.640381
1545.000000	99.638294
1544.000000	99.637173
1543.000000	99.635088
1542.000000	99.631966
1541.000000	99.628614
1540.000000	99.623276
1539.000000	99.613131
1538.000000	99.600146
1537.000000	99.587502
1536.000000	99.576275
1535.000000	99.566412
1534.000000	99.557699
1533.000000	99.549567
1532.000000	99.541109
1531.000000	99.531311
1530.000000	99.519668
1529.000000	99.507482
1528.000000	99.497785
1527.000000	99.492481
1526.000000	99.489635
1525.000000	99.485320
1524.000000	99.478202
1523.000000	99.470069
1522.000000	99.463148
1521.000000	99.458130
1520.000000	99.454881
1519.000000	99.453693
1518.000000	99.453722
1517.000000	99.451581
1516.000000	99.444259
1515.000000	99.433539
1514.000000	99.423384
1513.000000	99.415184
1512.000000	99.408286
1511.000000	99.402432
1510.000000	99.398553
1509.000000	99.397342
1508.000000	99.397309
1507.000000	99.394162
1506.000000	99.386404
1505.000000	99.379732
1504.000000	99.376772
1503.000000	99.376135
1502.000000	99.376864
1501.000000	99.378546
1500.000000	99.380039
1499.000000	99.379274
1498.000000	99.374398
1497.000000	99.365724
1496.000000	99.356258
1495.000000	99.348891
1494.000000	99.344168
1493.000000	99.341139
1492.000000	99.338578
1491.000000	99.335790
1490.000000	99.333488
1489.000000	99.333204
1488.000000	99.334942
1487.000000	99.336593
1486.000000	99.336862
1485.000000	99.336559
1484.000000	99.336366
1483.000000	99.335209
1482.000000	99.331005
1481.000000	99.323582
1480.000000	99.316037
1479.000000	99.312337
1478.000000	99.314564
1477.000000	99.321996
1476.000000	99.331326
1475.000000	99.339071
1474.000000	99.344591
1473.000000	99.349011
1472.000000	99.352534
1471.000000	99.355048
1470.000000	99.357842
1469.000000	99.362111
1468.000000	99.367412
1467.000000	99.372151
1466.000000	99.375762
1465.000000	99.379818
1464.000000	99.385654
1463.000000	99.392032
1462.000000	99.396894
1461.000000	99.399885
1460.000000	99.402260
1459.000000	99.405696
1458.000000	99.410701
1457.000000	99.415145
1456.000000	99.416235
1455.000000	99.414296
1454.000000	99.411229
1453.000000	99.408815
1452.000000	99.408185
1451.000000	99.408893
1450.000000	99.409492
1449.000000	99.409758
1448.000000	99.411143
1447.000000	99.414036
1446.000000	99.416621
1445.000000	99.417326
1444.000000	99.416859
1443.000000	99.416958
1442.000000	99.417991
1441.000000	99.418841
1440.000000	99.418980
1439.000000	99.419280
1438.000000	99.420475
1437.000000	99.422110
1436.000000	99.423592
1435.000000	99.425813
1434.000000	99.429708
1433.000000	99.434736
1432.000000	99.439270
1431.000000	99.442006
1430.000000	99.443259
1429.000000	99.444713
1428.000000	99.447647
1427.000000	99.451802
1426.000000	99.456176
1425.000000	99.460161
1424.000000	99.464057
1423.000000	99.468439
1422.000000	99.472886
1421.000000	99.475897
1420.000000	99.476391
1419.000000	99.476069
1418.000000	99.478537
1417.000000	99.484794
1416.000000	99.492521
1415.000000	99.498765
1414.000000	99.502357
1413.000000	99.504448
1412.000000	99.507246
1411.000000	99.512028
1410.000000	99.518166
1409.000000	99.524009
1408.000000	99.528338
1407.000000	99.530989
1406.000000	99.533000
1405.000000	99.536260
1404.000000	99.542355
1403.000000	99.551162
1402.000000	99.560921
1401.000000	99.569682
1400.000000	99.576216
1399.000000	99.580321
1398.000000	99.582758
1397.000000	99.584577
1396.000000	99.586683
1395.000000	99.590026
1394.000000	99.595219
1393.000000	99.601701
1392.000000	99.608268
1391.000000	99.614157
1390.000000	99.619347
1389.000000	99.624214
1388.000000	99.629150
1387.000000	99.634563
1386.000000	99.641027
1385.000000	99.648898
1384.000000	99.657658
1383.000000	99.665778
1382.000000	99.671448
1381.000000	99.673939
1380.000000	99.674369
1379.000000	99.675109
1378.000000	99.677973
1377.000000	99.682623
1376.000000	99.686961
1375.000000	99.689061
1374.000000	99.688718
1373.000000	99.687149
1372.000000	99.685689
1371.000000	99.685496
1370.000000	99.687900
1369.000000	99.693519
1368.000000	99.701137
1367.000000	99.708417
1366.000000	99.713610
1365.000000	99.715824
1364.000000	99.714509
1363.000000	99.710314
1362.000000	99.706161
1361.000000	99.705052
1360.000000	99.706802
1359.000000	99.708777
1358.000000	99.709128
1357.000000	99.708207
1356.000000	99.707371
1355.000000	99.707372
1354.000000	99.708120
1353.000000	99.709206
1352.000000	99.710074
1351.000000	99.710129
1350.000000	99.709372
1349.000000	99.708438
1348.000000	99.707956
1347.000000	99.708151
1346.000000	99.709088
1345.000000	99.710761
1344.000000	99.712697
1343.000000	99.713905
1342.000000	99.713559
1341.000000	99.711740
1340.000000	99.709646
1339.000000	99.709010
1338.000000	99.710668
1337.000000	99.713465
1336.000000	99.715053
1335.000000	99.714026
1334.000000	99.711219
1333.000000	99.708719
1332.000000	99.707798
1331.000000	99.708163
1330.000000	99.708889
1329.000000	99.709427
1328.000000	99.709915
1327.000000	99.711087
1326.000000	99.713519
1325.000000	99.716128
1324.000000	99.716243
1323.000000	99.712570
1322.000000	99.707822
1321.000000	99.706666
1320.000000	99.710410
1319.000000	99.715234
1318.000000	99.716674
1317.000000	99.714476
1316.000000	99.711657
1315.000000	99.710390
1314.000000	99.710524
1313.000000	99.711167
1312.000000	99.711797
1311.000000	99.711912
1310.000000	99.711038
1309.000000	99.709263
1308.000000	99.706967
1307.000000	99.704219
1306.000000	99.701412
1305.000000	99.699957
1304.000000	99.701042
1303.000000	99.703674
1302.000000	99.705421
1301.000000	99.705330
1300.000000	99.704615
1299.000000	99.703972
1298.000000	99.701827
1297.000000	99.696454
1296.000000	99.688715
1295.000000	99.681463
1294.000000	99.676725
1293.000000	99.674496
1292.000000	99.673603
1291.000000	99.672371
1290.000000	99.669068
1289.000000	99.663306
1288.000000	99.657016
1287.000000	99.652743
1286.000000	99.650743
1285.000000	99.648683
1284.000000	99.644224
1283.000000	99.637105
1282.000000	99.629008
1281.000000	99.622404
1280.000000	99.619218
1279.000000	99.619383
1278.000000	99.620487
1277.000000	99.619886
1276.000000	99.617087
1275.000000	99.613172
1274.000000	99.608379
1273.000000	99.601901
1272.000000	99.594164
1271.000000	99.587665
1270.000000	99.584895
1269.000000	99.586466
1268.000000	99.591370
1267.000000	99.597446
1266.000000	99.601367
1265.000000	99.600320
1264.000000	99.594837
1263.000000	99.588655
1262.000000	99.584664
1261.000000	99.581905
1260.000000	99.577417
1259.000000	99.569924
1258.000000	99.560371
1257.000000	99.549638
1256.000000	99.537298
1255.000000	99.522726
1254.000000	99.506528
1253.000000	99.490424
1252.000000	99.475755
1251.000000	99.462261
1250.000000	99.448829
1249.000000	99.435776
1248.000000	99.425404
1247.000000	99.419166
1246.000000	99.414886
1245.000000	99.408362
1244.000000	99.397334
1243.000000	99.382364
1242.000000	99.364475
1241.000000	99.344264
1240.000000	99.323397
1239.000000	99.304381
1238.000000	99.287811
1237.000000	99.271792
1236.000000	99.255010
1235.000000	99.238378
1234.000000	99.222475
1233.000000	99.205202
1232.000000	99.183703
1231.000000	99.157704
1230.000000	99.129694
1229.000000	99.102106
1228.000000	99.074619
1227.000000	99.043530
1226.000000	99.004020
1225.000000	98.954604
1224.000000	98.899478
1223.000000	98.844781
1222.000000	98.792125
1221.000000	98.737693
1220.000000	98.677774
1219.000000	98.612534
1218.000000	98.543795
1217.000000	98.471915
1216.000000	98.396177
1215.000000	98.315889
1214.000000	98.229997
1213.000000	98.138287
1212.000000	98.044266
1211.000000	97.953806
1210.000000	97.868831
1209.000000	97.784876
1208.000000	97.696663
1207.000000	97.603818
1206.000000	97.510174
1205.000000	97.420246
1204.000000	97.337242
1203.000000	97.261191
1202.000000	97.187792
1201.000000	97.112286
1200.000000	97.035082
1199.000000	96.959900
1198.000000	96.886223
1197.000000	96.808777
1196.000000	96.725659
1195.000000	96.641452
1194.000000	96.560108
1193.000000	96.479698
1192.000000	96.396818
1191.000000	96.311394
1190.000000	96.224162
1189.000000	96.133937
1188.000000	96.040850
1187.000000	95.948481
1186.000000	95.859301
1185.000000	95.771045
1184.000000	95.680296
1183.000000	95.586359
1182.000000	95.489242
1181.000000	95.387325
1180.000000	95.279515
1179.000000	95.166637
1178.000000	95.049014
1177.000000	94.926377
1176.000000	94.801389
1175.000000	94.678431
1174.000000	94.557056
1173.000000	94.432035
1172.000000	94.302288
1171.000000	94.173996
1170.000000	94.051975
1169.000000	93.934032
1168.000000	93.817702
1167.000000	93.707181
1166.000000	93.609890
1165.000000	93.531707
1164.000000	93.479198
1163.000000	93.460240
1162.000000	93.476602
1161.000000	93.518605
1160.000000	93.569617
1159.000000	93.612662
1158.000000	93.632711
1157.000000	93.619826
1156.000000	93.574584
1155.000000	93.507119
1154.000000	93.427561
1153.000000	93.339566
1152.000000	93.244177
1151.000000	93.144623
1150.000000	93.043997
1149.000000	92.942639
1148.000000	92.841267
1147.000000	92.742935
1146.000000	92.649253
1145.000000	92.558493
1144.000000	92.469494
1143.000000	92.383260
1142.000000	92.299049
1141.000000	92.213404
1140.000000	92.124418
1139.000000	92.032284
1138.000000	91.935256
1137.000000	91.831269
1136.000000	91.724529
1135.000000	91.623529
1134.000000	91.530337
1133.000000	91.438219
1132.000000	91.341565
1131.000000	91.241424
1130.000000	91.140070
1129.000000	91.037861
1128.000000	90.937388
1127.000000	90.842417
1126.000000	90.749857
1125.000000	90.650544
1124.000000	90.540826
1123.000000	90.426249
1122.000000	90.312352
1121.000000	90.200435
1120.000000	90.093841
1119.000000	89.997514
1118.000000	89.907788
1117.000000	89.813133
1116.000000	89.709498
1115.000000	89.605680
1114.000000	89.509982
1113.000000	89.421657
1112.000000	89.338658
1111.000000	89.261879
1110.000000	89.187101
1109.000000	89.104783
1108.000000	89.013920
1107.000000	88.925513
1106.000000	88.846478
1105.000000	88.770414
1104.000000	88.690085
1103.000000	88.608860
1102.000000	88.533199
1101.000000	88.463188
1100.000000	88.397059
1099.000000	88.336386
1098.000000	88.280732
1097.000000	88.224604
1096.000000	88.165339
1095.000000	88.107430
1094.000000	88.055237
1093.000000	88.008368
1092.000000	87.966798
1091.000000	87.932638
1090.000000	87.904328
1089.000000	87.876813
1088.000000	87.849007
1087.000000	87.823213
1086.000000	87.797301
1085.000000	87.767464
1084.000000	87.739003
1083.000000	87.723264
1082.000000	87.722267
1081.000000	87.726681
1080.000000	87.729792
1079.000000	87.732339
1078.000000	87.733146
1077.000000	87.727240
1076.000000	87.714744
1075.000000	87.699617
1074.000000	87.677813
1073.000000	87.638498
1072.000000	87.578305
1071.000000	87.502316
1070.000000	87.409659
1069.000000	87.291157
1068.000000	87.144471
1067.000000	86.979794
1066.000000	86.807367
1065.000000	86.630717
1064.000000	86.455229
1063.000000	86.290300
1062.000000	86.138345
1061.000000	85.993544
1060.000000	85.855145
1059.000000	85.729726
1058.000000	85.617386
1057.000000	85.509057
1056.000000	85.400964
1055.000000	85.297917
1054.000000	85.198022
1053.000000	85.088221
1052.000000	84.961296
1051.000000	84.824611
1050.000000	84.686227
1049.000000	84.546482
1048.000000	84.408616
1047.000000	84.280828
1046.000000	84.161053
1045.000000	84.034338
1044.000000	83.890734
1043.000000	83.734362
1042.000000	83.572874
1041.000000	83.411288
1040.000000	83.259168
1039.000000	83.129197
1038.000000	83.023027
1037.000000	82.930206
1036.000000	82.844330
1035.000000	82.768047
1034.000000	82.700404
1033.000000	82.634149
1032.000000	82.569022
1031.000000	82.513759
1030.000000	82.471786
1029.000000	82.438191
1028.000000	82.412491
1027.000000	82.399705
1026.000000	82.396750
1025.000000	82.392937
1024.000000	82.386107
1023.000000	82.382841
1022.000000	82.380913
1021.000000	82.368245
1020.000000	82.342414
1019.000000	82.314837
1018.000000	82.291846
1017.000000	82.267518
1016.000000	82.239223
1015.000000	82.214327
1014.000000	82.196588
1013.000000	82.180865
1012.000000	82.166048
1011.000000	82.158899
1010.000000	82.160597
1009.000000	82.163477
1008.000000	82.165757
1007.000000	82.176206
1006.000000	82.199800
1005.000000	82.231425
1004.000000	82.267371
1003.000000	82.310902
1002.000000	82.363294
1001.000000	82.420937
1000.000000	82.483387
999.000000	82.552723
998.000000	82.624076
997.000000	82.689609
996.000000	82.752962
995.000000	82.826822
994.000000	82.915261
993.000000	83.010699
992.000000	83.108075
991.000000	83.208768
990.000000	83.310786
989.000000	83.409878
988.000000	83.511295
987.000000	83.626244
986.000000	83.755550
985.000000	83.890038
984.000000	84.027344
983.000000	84.174469
982.000000	84.333187
981.000000	84.497097
980.000000	84.663901
979.000000	84.836920
978.000000	85.014305
977.000000	85.190906
976.000000	85.370780
975.000000	85.562887
974.000000	85.763589
973.000000	85.958342
972.000000	86.142251
971.000000	86.324606
970.000000	86.512043
969.000000	86.702030
968.000000	86.894347
967.000000	87.092939
966.000000	87.292778
965.000000	87.479916
964.000000	87.649698
963.000000	87.812421
962.000000	87.976933
961.000000	88.140584
960.000000	88.299447
959.000000	88.455913
958.000000	88.610909
957.000000	88.759582
956.000000	88.899992
955.000000	89.036688
954.000000	89.171988
953.000000	89.303302
952.000000	89.431893
951.000000	89.563015
950.000000	89.693056
949.000000	89.807851
948.000000	89.899840
947.000000	89.977956
946.000000	90.055528
945.000000	90.136391
944.000000	90.218374
943.000000	90.301795
942.000000	90.387402
941.000000	90.472170
940.000000	90.553394
939.000000	90.632737
938.000000	90.712557
937.000000	90.792780
936.000000	90.873867
935.000000	90.957656
934.000000	91.043158
933.000000	91.126752
932.000000	91.207834
931.000000	91.288598
930.000000	91.367659
929.000000	91.440730
928.000000	91.508503
927.000000	91.576708
926.000000	91.646993
925.000000	91.714836
924.000000	91.777792
923.000000	91.838362
922.000000	91.897075
921.000000	91.950344
920.000000	91.997487
919.000000	92.043006
918.000000	92.089704
917.000000	92.136020
916.000000	92.181988
915.000000	92.231260
914.000000	92.285679
913.000000	92.344772
912.000000	92.412249
911.000000	92.495654
910.000000	92.597550
909.000000	92.713638
908.000000	92.840261
907.000000	92.976412
906.000000	93.117769
905.000000	93.257519
904.000000	93.395869
903.000000	93.541243
902.000000	93.698883
901.000000	93.864021
900.000000	94.028101
899.000000	94.185926
898.000000	94.335299
897.000000	94.476057
896.000000	94.612066
895.000000	94.749241
894.000000	94.889019
893.000000	95.026875
892.000000	95.157675
891.000000	95.278886
890.000000	95.389239
889.000000	95.488937
888.000000	95.580893
887.000000	95.667376
886.000000	95.746292
885.000000	95.815469
884.000000	95.879156
883.000000	95.944294
882.000000	96.011062
881.000000	96.073802
880.000000	96.131239
879.000000	96.188814
878.000000	96.250391
877.000000	96.314686
876.000000	96.381145
875.000000	96.452988
874.000000	96.533681
873.000000	96.626062
872.000000	96.733606
871.000000	96.854376
870.000000	96.974018
869.000000	97.074487
868.000000	97.152533
867.000000	97.223452
866.000000	97.304999
865.000000	97.402257
864.000000	97.508115
863.000000	97.611123
862.000000	97.701233
861.000000	97.775293
860.000000	97.840821
859.000000	97.910072
858.000000	97.987847
857.000000	98.069072
856.000000	98.149303
855.000000	98.231533
854.000000	98.319671
853.000000	98.409999
852.000000	98.492532
851.000000	98.558275
850.000000	98.604238
849.000000	98.635270
848.000000	98.662540
847.000000	98.696370
846.000000	98.737940
845.000000	98.779891
844.000000	98.814959
843.000000	98.840409
842.000000	98.855000
841.000000	98.857928
840.000000	98.852679
839.000000	98.846817
838.000000	98.844825
837.000000	98.844170
836.000000	98.840181
835.000000	98.831622
834.000000	98.820182
833.000000	98.807606
832.000000	98.794820
831.000000	98.781924
830.000000	98.769645
829.000000	98.763568
828.000000	98.773792
827.000000	98.803142
826.000000	98.836889
825.000000	98.853539
824.000000	98.846429
823.000000	98.824816
822.000000	98.794236
821.000000	98.749805
820.000000	98.691368
819.000000	98.630649
818.000000	98.576525
817.000000	98.521745
816.000000	98.449693
815.000000	98.347622
814.000000	98.208504
813.000000	98.026439
812.000000	97.796821
811.000000	97.517072
810.000000	97.181933
809.000000	96.782459
808.000000	96.315654
807.000000	95.791728
806.000000	95.227832
805.000000	94.641383
804.000000	94.055909
803.000000	93.504888
802.000000	93.019037
801.000000	92.614315
800.000000	92.298601
799.000000	92.080801
798.000000	91.964600
797.000000	91.941135
796.000000	91.995145
795.000000	92.110897
794.000000	92.267177
793.000000	92.435924
792.000000	92.592575
791.000000	92.721536
790.000000	92.808542
789.000000	92.837652
788.000000	92.803047
787.000000	92.716538
786.000000	92.594680
785.000000	92.441920
784.000000	92.253451
783.000000	92.032105
782.000000	91.797172
781.000000	91.579836
780.000000	91.414288
779.000000	91.327566
778.000000	91.329790
777.000000	91.413550
776.000000	91.562113
775.000000	91.753717
774.000000	91.961462
773.000000	92.161907
772.000000	92.349062
771.000000	92.533442
770.000000	92.723958
769.000000	92.915483
768.000000	93.095021
767.000000	93.253004
766.000000	93.385910
765.000000	93.494726
764.000000	93.586167
763.000000	93.672506
762.000000	93.766638
761.000000	93.877566
760.000000	94.008416
759.000000	94.152814
758.000000	94.292766
757.000000	94.407379
756.000000	94.488434
755.000000	94.546821
754.000000	94.604528
753.000000	94.681843
752.000000	94.787529
751.000000	94.912304
750.000000	95.030384
749.000000	95.115216
748.000000	95.159361
747.000000	95.179586
746.000000	95.205001
745.000000	95.262393
744.000000	95.366279
743.000000	95.510721
742.000000	95.668318
741.000000	95.806722
740.000000	95.911408
739.000000	95.989829
738.000000	96.055889
737.000000	96.118006
736.000000	96.181791
735.000000	96.253195
734.000000	96.332024
733.000000	96.406804
732.000000	96.461859
731.000000	96.489575
730.000000	96.496334
729.000000	96.500322
728.000000	96.522828
727.000000	96.574647
726.000000	96.646782
725.000000	96.717518
724.000000	96.771852
723.000000	96.813231
722.000000	96.857396
721.000000	96.918463
720.000000	96.999498
719.000000	97.090304
718.000000	97.173188
717.000000	97.235585
716.000000	97.278986
715.000000	97.313540
714.000000	97.344585
713.000000	97.368686
712.000000	97.382713
711.000000	97.390999
710.000000	97.401418
709.000000	97.418078
708.000000	97.438106
707.000000	97.450763
706.000000	97.440211
705.000000	97.395526
704.000000	97.318952
703.000000	97.218486
702.000000	97.090621
701.000000	96.916717
700.000000	96.679993
699.000000	96.383434
698.000000	96.054475
697.000000	95.741494
696.000000	95.504452
695.000000	95.392514
694.000000	95.416294
693.000000	95.540219
692.000000	95.705893
691.000000	95.868343
690.000000	96.016855
689.000000	96.167680
688.000000	96.338091
687.000000	96.522615
686.000000	96.692871
685.000000	96.823418
684.000000	96.915204
683.000000	96.989555
682.000000	97.063407
681.000000	97.137941
680.000000	97.209876
679.000000	97.283561
678.000000	97.366027
677.000000	97.455232
676.000000	97.537748
675.000000	97.597292
674.000000	97.628662
673.000000	97.646654
672.000000	97.677839
671.000000	97.738373
670.000000	97.821539
669.000000	97.902234
668.000000	97.955876
667.000000	97.985833
666.000000	98.013043
665.000000	98.050373
664.000000	98.103072
663.000000	98.168656
662.000000	98.232318
661.000000	98.275164
660.000000	98.289628
659.000000	98.279791
658.000000	98.250479
657.000000	98.205555
656.000000	98.156540
655.000000	98.121435
654.000000	98.109018
653.000000	98.111128
652.000000	98.117605
651.000000	98.130834
650.000000	98.158648
649.000000	98.203000
648.000000	98.263186
647.000000	98.341038
646.000000	98.434668
645.000000	98.531891
644.000000	98.616279
643.000000	98.677325
642.000000	98.714654
641.000000	98.739170
640.000000	98.771351
639.000000	98.829577
638.000000	98.912884
637.000000	99.001100
636.000000	99.076442
635.000000	99.137022
634.000000	99.187284
633.000000	99.225852
632.000000	99.251213
631.000000	99.274405
630.000000	99.317176
629.000000	99.395416
628.000000	99.505583
627.000000	99.621601
626.000000	99.705257
625.000000	99.733119
624.000000	99.718965
623.000000	99.705114
622.000000	99.724866
621.000000	99.771812
620.000000	99.808941
619.000000	99.802461
618.000000	99.745848
617.000000	99.657632
616.000000	99.567561
615.000000	99.506622
614.000000	99.492824
613.000000	99.519373
612.000000	99.562003
611.000000	99.596547
610.000000	99.611321
609.000000	99.606808
608.000000	99.583989
607.000000	99.533352
606.000000	99.439483
605.000000	99.303141
604.000000	99.156051
603.000000	99.044064
602.000000	98.988977
601.000000	98.974876
600.000000	98.974417
599.000000	98.972004
598.000000	98.961326
597.000000	98.940988
596.000000	98.920347
595.000000	98.915347
594.000000	98.928023
593.000000	98.942107
592.000000	98.947659
591.000000	98.958197
590.000000	98.994741
589.000000	99.064035
588.000000	99.161114
587.000000	99.275010
586.000000	99.383661
585.000000	99.460501
584.000000	99.491402
583.000000	99.478603
582.000000	99.439463
581.000000	99.413441
580.000000	99.456874
579.000000	99.598477
578.000000	99.787929
577.000000	99.922600
576.000000	99.938559
575.000000	99.854249
574.000000	99.737366
573.000000	99.647202
572.000000	99.621019
571.000000	99.678586
570.000000	99.791814
569.000000	99.879267
568.000000	99.875351
567.000000	99.791961
566.000000	99.695491
565.000000	99.629018
564.000000	99.587901
563.000000	99.559069
562.000000	99.544492
561.000000	99.550392
560.000000	99.574795
559.000000	99.599107
558.000000	99.584128
557.000000	99.497641
556.000000	99.359456
555.000000	99.246918
554.000000	99.231022
553.000000	99.318709
552.000000	99.470842
551.000000	99.632380
550.000000	99.740590
