PE IR       SUBTECH     SPECTRUM    ASCII       PEDS        4.00        
   -1
BH1 8-1 2 35_1.asc
24/05/17
14:33:46.00
24/05/17
14:34:31.00
Administrator
?品 008 用? Administrator 日期 Friday, May 17 2024
550.000000
#HDR
-1
-1
#GR
cm-1
%T
1.0
0.0
4000.000000
-1.000000
3451
8
100.240499
86.524469
#DATA
4000.000000	100.050885
3999.000000	100.050360
3998.000000	100.049941
3997.000000	100.049622
3996.000000	100.049280
3995.000000	100.048790
3994.000000	100.048109
3993.000000	100.047273
3992.000000	100.046456
3991.000000	100.045867
3990.000000	100.045618
3989.000000	100.045688
3988.000000	100.045891
3987.000000	100.045962
3986.000000	100.045715
3985.000000	100.045122
3984.000000	100.044385
3983.000000	100.043750
3982.000000	100.043295
3981.000000	100.042960
3980.000000	100.042684
3979.000000	100.042461
3978.000000	100.042232
3977.000000	100.041797
3976.000000	100.040953
3975.000000	100.039736
3974.000000	100.038576
3973.000000	100.038005
3972.000000	100.038222
3971.000000	100.038958
3970.000000	100.039669
3969.000000	100.039985
3968.000000	100.039861
3967.000000	100.039449
3966.000000	100.038869
3965.000000	100.038086
3964.000000	100.037051
3963.000000	100.035925
3962.000000	100.035030
3961.000000	100.034565
3960.000000	100.034450
3959.000000	100.034455
3958.000000	100.034486
3957.000000	100.034690
3956.000000	100.035292
3955.000000	100.036320
3954.000000	100.037465
3953.000000	100.038209
3952.000000	100.038152
3951.000000	100.037335
3950.000000	100.036271
3949.000000	100.035586
3948.000000	100.035584
3947.000000	100.036125
3946.000000	100.036842
3945.000000	100.037420
3944.000000	100.037621
3943.000000	100.037150
3942.000000	100.035758
3941.000000	100.033599
3940.000000	100.031363
3939.000000	100.029994
3938.000000	100.030079
3937.000000	100.031462
3936.000000	100.033395
3935.000000	100.035013
3934.000000	100.035743
3933.000000	100.035385
3932.000000	100.034097
3931.000000	100.032349
3930.000000	100.030637
3929.000000	100.029167
3928.000000	100.027977
3927.000000	100.027349
3926.000000	100.027749
3925.000000	100.029257
3924.000000	100.031376
3923.000000	100.033453
3922.000000	100.034998
3921.000000	100.035685
3920.000000	100.035456
3919.000000	100.034731
3918.000000	100.034260
3917.000000	100.034519
3916.000000	100.035375
3915.000000	100.036377
3914.000000	100.037147
3913.000000	100.037521
3912.000000	100.037515
3911.000000	100.037288
3910.000000	100.037082
3909.000000	100.037083
3908.000000	100.037395
3907.000000	100.038117
3906.000000	100.039329
3905.000000	100.040801
3904.000000	100.041836
3903.000000	100.041857
3902.000000	100.040956
3901.000000	100.039829
3900.000000	100.039154
3899.000000	100.039055
3898.000000	100.039291
3897.000000	100.039572
3896.000000	100.039697
3895.000000	100.039587
3894.000000	100.039315
3893.000000	100.039095
3892.000000	100.039062
3891.000000	100.039144
3890.000000	100.039238
3889.000000	100.039365
3888.000000	100.039649
3887.000000	100.040075
3886.000000	100.040140
3885.000000	100.039289
3884.000000	100.037629
3883.000000	100.035935
3882.000000	100.034978
3881.000000	100.034830
3880.000000	100.034815
3879.000000	100.034396
3878.000000	100.033720
3877.000000	100.033275
3876.000000	100.033407
3875.000000	100.033853
3874.000000	100.033778
3873.000000	100.032776
3872.000000	100.031692
3871.000000	100.031865
3870.000000	100.033287
3869.000000	100.034512
3868.000000	100.034476
3867.000000	100.033446
3866.000000	100.032261
3865.000000	100.031204
3864.000000	100.029968
3863.000000	100.028601
3862.000000	100.027490
3861.000000	100.026620
3860.000000	100.025412
3859.000000	100.023258
3858.000000	100.019997
3857.000000	100.016168
3856.000000	100.013161
3855.000000	100.012586
3854.000000	100.013688
3853.000000	100.013939
3852.000000	100.013628
3851.000000	100.014380
3850.000000	100.016142
3849.000000	100.017757
3848.000000	100.018317
3847.000000	100.017824
3846.000000	100.016837
3845.000000	100.015847
3844.000000	100.014904
3843.000000	100.013896
3842.000000	100.012992
3841.000000	100.012611
3840.000000	100.012876
3839.000000	100.013268
3838.000000	100.013098
3837.000000	100.012254
3836.000000	100.011143
3835.000000	100.010203
3834.000000	100.009658
3833.000000	100.009508
3832.000000	100.009563
3831.000000	100.009600
3830.000000	100.009523
3829.000000	100.009398
3828.000000	100.009317
3827.000000	100.009244
3826.000000	100.009049
3825.000000	100.008692
3824.000000	100.008338
3823.000000	100.008299
3822.000000	100.008676
3821.000000	100.009136
3820.000000	100.009322
3819.000000	100.009219
3818.000000	100.009022
3817.000000	100.008903
3816.000000	100.008852
3815.000000	100.008938
3814.000000	100.009401
3813.000000	100.010329
3812.000000	100.011506
3811.000000	100.012510
3810.000000	100.013044
3809.000000	100.013140
3808.000000	100.013066
3807.000000	100.012906
3806.000000	100.012532
3805.000000	100.011970
3804.000000	100.011577
3803.000000	100.011806
3802.000000	100.012524
3801.000000	100.013030
3800.000000	100.013157
3799.000000	100.013373
3798.000000	100.014008
3797.000000	100.014884
3796.000000	100.015616
3795.000000	100.016186
3794.000000	100.016910
3793.000000	100.017877
3792.000000	100.018746
3791.000000	100.019146
3790.000000	100.019087
3789.000000	100.018869
3788.000000	100.018701
3787.000000	100.018545
3786.000000	100.018264
3785.000000	100.017814
3784.000000	100.017310
3783.000000	100.017014
3782.000000	100.017205
3781.000000	100.017998
3780.000000	100.019127
3779.000000	100.019979
3778.000000	100.020153
3777.000000	100.019675
3776.000000	100.018881
3775.000000	100.018125
3774.000000	100.017633
3773.000000	100.017579
3772.000000	100.018034
3771.000000	100.018589
3770.000000	100.018332
3769.000000	100.016857
3768.000000	100.014988
3767.000000	100.014046
3766.000000	100.014438
3765.000000	100.015278
3764.000000	100.015385
3763.000000	100.014559
3762.000000	100.013546
3761.000000	100.012956
3760.000000	100.012447
3759.000000	100.011374
3758.000000	100.009956
3757.000000	100.009013
3756.000000	100.009039
3755.000000	100.009971
3754.000000	100.011415
3753.000000	100.012709
3752.000000	100.012896
3751.000000	100.011277
3750.000000	100.008409
3749.000000	100.004918
3748.000000	100.000299
3747.000000	99.995131
3746.000000	99.992609
3745.000000	99.993458
3744.000000	99.993731
3743.000000	99.992085
3742.000000	99.991294
3741.000000	99.993444
3740.000000	99.997955
3739.000000	100.002838
3738.000000	100.007478
3737.000000	100.012636
3736.000000	100.017261
3735.000000	100.018083
3734.000000	100.013792
3733.000000	100.006568
3732.000000	99.999181
3731.000000	99.992630
3730.000000	99.986591
3729.000000	99.981001
3728.000000	99.976693
3727.000000	99.974417
3726.000000	99.974244
3725.000000	99.975961
3724.000000	99.978733
3723.000000	99.980674
3722.000000	99.979800
3721.000000	99.975706
3720.000000	99.969929
3719.000000	99.964579
3718.000000	99.960420
3717.000000	99.956345
3716.000000	99.950921
3715.000000	99.944246
3714.000000	99.938330
3713.000000	99.935418
3712.000000	99.935022
3711.000000	99.933901
3710.000000	99.929761
3709.000000	99.922910
3708.000000	99.914762
3707.000000	99.906568
3706.000000	99.899408
3705.000000	99.894389
3704.000000	99.892046
3703.000000	99.891215
3702.000000	99.889255
3701.000000	99.884857
3700.000000	99.880041
3699.000000	99.878093
3698.000000	99.880073
3697.000000	99.883451
3696.000000	99.884063
3695.000000	99.879592
3694.000000	99.870693
3693.000000	99.859879
3692.000000	99.850296
3691.000000	99.844458
3690.000000	99.841615
3689.000000	99.837580
3688.000000	99.830341
3687.000000	99.822603
3686.000000	99.817686
3685.000000	99.815729
3684.000000	99.813475
3683.000000	99.807121
3682.000000	99.796103
3681.000000	99.783264
3680.000000	99.770928
3679.000000	99.758741
3678.000000	99.746923
3677.000000	99.739061
3676.000000	99.735390
3675.000000	99.729768
3674.000000	99.718405
3673.000000	99.703283
3672.000000	99.689377
3671.000000	99.680100
3670.000000	99.672737
3669.000000	99.663051
3668.000000	99.651858
3667.000000	99.642419
3666.000000	99.635640
3665.000000	99.629446
3664.000000	99.621352
3663.000000	99.611318
3662.000000	99.601763
3661.000000	99.594257
3660.000000	99.587302
3659.000000	99.578028
3658.000000	99.565652
3657.000000	99.551747
3656.000000	99.537959
3655.000000	99.525015
3654.000000	99.512424
3653.000000	99.499109
3652.000000	99.485071
3651.000000	99.471719
3650.000000	99.459640
3649.000000	99.448743
3648.000000	99.439569
3647.000000	99.431377
3646.000000	99.422100
3645.000000	99.411442
3644.000000	99.401340
3643.000000	99.393156
3642.000000	99.385541
3641.000000	99.376211
3640.000000	99.365809
3639.000000	99.358016
3638.000000	99.355480
3637.000000	99.356921
3636.000000	99.358544
3635.000000	99.357026
3634.000000	99.350752
3633.000000	99.339669
3632.000000	99.324825
3631.000000	99.309125
3630.000000	99.295124
3629.000000	99.279599
3628.000000	99.260836
3627.000000	99.244570
3626.000000	99.235441
3625.000000	99.232492
3624.000000	99.231639
3623.000000	99.229183
3622.000000	99.224990
3621.000000	99.222642
3620.000000	99.225481
3619.000000	99.232585
3618.000000	99.240449
3617.000000	99.247268
3616.000000	99.254358
3615.000000	99.264173
3614.000000	99.276637
3613.000000	99.288185
3612.000000	99.295629
3611.000000	99.299449
3610.000000	99.302370
3609.000000	99.306067
3608.000000	99.310422
3607.000000	99.315541
3606.000000	99.321951
3605.000000	99.328394
3604.000000	99.332354
3603.000000	99.333426
3602.000000	99.334914
3601.000000	99.340318
3600.000000	99.348885
3599.000000	99.356092
3598.000000	99.358369
3597.000000	99.356687
3596.000000	99.355898
3595.000000	99.360269
3594.000000	99.369529
3593.000000	99.379576
3592.000000	99.386264
3591.000000	99.388323
3590.000000	99.387906
3589.000000	99.388448
3588.000000	99.390141
3587.000000	99.389455
3586.000000	99.384785
3585.000000	99.378485
3584.000000	99.373407
3583.000000	99.370438
3582.000000	99.369038
3581.000000	99.368659
3580.000000	99.369193
3579.000000	99.370392
3578.000000	99.371226
3577.000000	99.370240
3576.000000	99.366659
3575.000000	99.361193
3574.000000	99.355786
3573.000000	99.352338
3572.000000	99.351371
3571.000000	99.351880
3570.000000	99.352499
3569.000000	99.352406
3568.000000	99.350560
3567.000000	99.345393
3566.000000	99.337355
3565.000000	99.329872
3564.000000	99.326219
3563.000000	99.326698
3562.000000	99.328739
3561.000000	99.329075
3560.000000	99.326206
3559.000000	99.321058
3558.000000	99.315573
3557.000000	99.311036
3556.000000	99.307841
3555.000000	99.306265
3554.000000	99.306570
3553.000000	99.308215
3552.000000	99.309676
3551.000000	99.309663
3550.000000	99.308204
3549.000000	99.306293
3548.000000	99.304889
3547.000000	99.304313
3546.000000	99.304243
3545.000000	99.304067
3544.000000	99.303300
3543.000000	99.301833
3542.000000	99.299906
3541.000000	99.297940
3540.000000	99.296356
3539.000000	99.295416
3538.000000	99.295099
3537.000000	99.295045
3536.000000	99.294693
3535.000000	99.293714
3534.000000	99.292227
3533.000000	99.290619
3532.000000	99.289212
3531.000000	99.288061
3530.000000	99.287091
3529.000000	99.286269
3528.000000	99.285592
3527.000000	99.284987
3526.000000	99.284316
3525.000000	99.283489
3524.000000	99.282543
3523.000000	99.281621
3522.000000	99.280894
3521.000000	99.280442
3520.000000	99.280188
3519.000000	99.279955
3518.000000	99.279578
3517.000000	99.279039
3516.000000	99.278439
3515.000000	99.277875
3514.000000	99.277359
3513.000000	99.276848
3512.000000	99.276296
3511.000000	99.275687
3510.000000	99.275037
3509.000000	99.274381
3508.000000	99.273746
3507.000000	99.273146
3506.000000	99.272573
3505.000000	99.272002
3504.000000	99.271404
3503.000000	99.270753
3502.000000	99.270059
3501.000000	99.269370
3500.000000	99.268729
3499.000000	99.268140
3498.000000	99.267554
3497.000000	99.266919
3496.000000	99.266237
3495.000000	99.265579
3494.000000	99.265006
3493.000000	99.264486
3492.000000	99.263900
3491.000000	99.263147
3490.000000	99.262225
3489.000000	99.261206
3488.000000	99.260164
3487.000000	99.259125
3486.000000	99.258085
3485.000000	99.257074
3484.000000	99.256186
3483.000000	99.255520
3482.000000	99.255076
3481.000000	99.254689
3480.000000	99.254108
3479.000000	99.253139
3478.000000	99.251777
3477.000000	99.250291
3476.000000	99.249130
3475.000000	99.248606
3474.000000	99.248544
3473.000000	99.248253
3472.000000	99.247102
3471.000000	99.245036
3470.000000	99.242631
3469.000000	99.240615
3468.000000	99.239348
3467.000000	99.238767
3466.000000	99.238537
3465.000000	99.238180
3464.000000	99.237251
3463.000000	99.235533
3462.000000	99.233146
3461.000000	99.230446
3460.000000	99.227771
3459.000000	99.225303
3458.000000	99.223163
3457.000000	99.221488
3456.000000	99.220295
3455.000000	99.219329
3454.000000	99.218175
3453.000000	99.216674
3452.000000	99.215193
3451.000000	99.214322
3450.000000	99.214206
3449.000000	99.214183
3448.000000	99.213283
3447.000000	99.211203
3446.000000	99.208695
3445.000000	99.206795
3444.000000	99.205685
3443.000000	99.204610
3442.000000	99.202861
3441.000000	99.200638
3440.000000	99.198782
3439.000000	99.197860
3438.000000	99.197776
3437.000000	99.198080
3436.000000	99.198283
3435.000000	99.197879
3434.000000	99.196472
3433.000000	99.194253
3432.000000	99.192254
3431.000000	99.191673
3430.000000	99.192769
3429.000000	99.194455
3428.000000	99.195192
3427.000000	99.194378
3426.000000	99.192628
3425.000000	99.190903
3424.000000	99.189505
3423.000000	99.187995
3422.000000	99.185876
3421.000000	99.183087
3420.000000	99.180043
3419.000000	99.177448
3418.000000	99.175981
3417.000000	99.175726
3416.000000	99.175846
3415.000000	99.175301
3414.000000	99.174041
3413.000000	99.173200
3412.000000	99.173909
3411.000000	99.176159
3410.000000	99.178956
3409.000000	99.181397
3408.000000	99.183405
3407.000000	99.185527
3406.000000	99.188202
3405.000000	99.191215
3404.000000	99.193758
3403.000000	99.195041
3402.000000	99.194823
3401.000000	99.193353
3400.000000	99.190893
3399.000000	99.187674
3398.000000	99.184339
3397.000000	99.182021
3396.000000	99.181560
3395.000000	99.182712
3394.000000	99.184506
3393.000000	99.186356
3392.000000	99.188528
3391.000000	99.191386
3390.000000	99.194559
3389.000000	99.197235
3388.000000	99.199166
3387.000000	99.200955
3386.000000	99.203300
3385.000000	99.206138
3384.000000	99.208652
3383.000000	99.210012
3382.000000	99.209998
3381.000000	99.209121
3380.000000	99.208368
3379.000000	99.208722
3378.000000	99.210576
3377.000000	99.213476
3376.000000	99.216364
3375.000000	99.218308
3374.000000	99.219094
3373.000000	99.219122
3372.000000	99.218968
3371.000000	99.219052
3370.000000	99.219583
3369.000000	99.220643
3368.000000	99.222207
3367.000000	99.224132
3366.000000	99.226177
3365.000000	99.228049
3364.000000	99.229495
3363.000000	99.230459
3362.000000	99.231186
3361.000000	99.232121
3360.000000	99.233539
3359.000000	99.235322
3358.000000	99.237099
3357.000000	99.238605
3356.000000	99.239901
3355.000000	99.241237
3354.000000	99.242772
3353.000000	99.244461
3352.000000	99.246150
3351.000000	99.247729
3350.000000	99.249207
3349.000000	99.250685
3348.000000	99.252284
3347.000000	99.254067
3346.000000	99.255995
3345.000000	99.257912
3344.000000	99.259612
3343.000000	99.260961
3342.000000	99.262007
3341.000000	99.262977
3340.000000	99.264114
3339.000000	99.265505
3338.000000	99.267054
3337.000000	99.268603
3336.000000	99.270083
3335.000000	99.271550
3334.000000	99.273074
3333.000000	99.274642
3332.000000	99.276182
3331.000000	99.277642
3330.000000	99.279023
3329.000000	99.280345
3328.000000	99.281633
3327.000000	99.282923
3326.000000	99.284263
3325.000000	99.285677
3324.000000	99.287131
3323.000000	99.288520
3322.000000	99.289733
3321.000000	99.290740
3320.000000	99.291613
3319.000000	99.292469
3318.000000	99.293405
3317.000000	99.294471
3316.000000	99.295662
3315.000000	99.296926
3314.000000	99.298173
3313.000000	99.299340
3312.000000	99.300445
3311.000000	99.301563
3310.000000	99.302742
3309.000000	99.303925
3308.000000	99.304970
3307.000000	99.305784
3306.000000	99.306405
3305.000000	99.306975
3304.000000	99.307671
3303.000000	99.308582
3302.000000	99.309670
3301.000000	99.310782
3300.000000	99.311760
3299.000000	99.312570
3298.000000	99.313334
3297.000000	99.314233
3296.000000	99.315334
3295.000000	99.316523
3294.000000	99.317555
3293.000000	99.318197
3292.000000	99.318365
3291.000000	99.318259
3290.000000	99.318349
3289.000000	99.319039
3288.000000	99.320287
3287.000000	99.321520
3286.000000	99.322142
3285.000000	99.322115
3284.000000	99.321974
3283.000000	99.322280
3282.000000	99.323157
3281.000000	99.324347
3280.000000	99.325510
3279.000000	99.326434
3278.000000	99.327129
3277.000000	99.327894
3276.000000	99.329221
3275.000000	99.331440
3274.000000	99.334371
3273.000000	99.337354
3272.000000	99.339660
3271.000000	99.340920
3270.000000	99.341292
3269.000000	99.341343
3268.000000	99.341660
3267.000000	99.342550
3266.000000	99.344034
3265.000000	99.345981
3264.000000	99.348073
3263.000000	99.349653
3262.000000	99.349906
3261.000000	99.348493
3260.000000	99.346074
3259.000000	99.343964
3258.000000	99.343082
3257.000000	99.343270
3256.000000	99.343630
3255.000000	99.343595
3254.000000	99.343674
3253.000000	99.344933
3252.000000	99.347724
3251.000000	99.351174
3250.000000	99.354104
3249.000000	99.356367
3248.000000	99.358746
3247.000000	99.361566
3246.000000	99.364072
3245.000000	99.365547
3244.000000	99.366418
3243.000000	99.367589
3242.000000	99.369119
3241.000000	99.370372
3240.000000	99.371377
3239.000000	99.373096
3238.000000	99.376080
3237.000000	99.379513
3236.000000	99.382089
3235.000000	99.383472
3234.000000	99.384319
3233.000000	99.385056
3232.000000	99.385291
3231.000000	99.384592
3230.000000	99.383398
3229.000000	99.382913
3228.000000	99.384095
3227.000000	99.386905
3226.000000	99.390376
3225.000000	99.393334
3224.000000	99.395284
3223.000000	99.396601
3222.000000	99.397982
3221.000000	99.399766
3220.000000	99.401763
3219.000000	99.403580
3218.000000	99.405072
3217.000000	99.406534
3216.000000	99.408473
3215.000000	99.411117
3214.000000	99.414120
3213.000000	99.416819
3212.000000	99.418836
3211.000000	99.420324
3210.000000	99.421650
3209.000000	99.423012
3208.000000	99.424424
3207.000000	99.425961
3206.000000	99.427753
3205.000000	99.429745
3204.000000	99.431667
3203.000000	99.433331
3202.000000	99.434802
3201.000000	99.436253
3200.000000	99.437791
3199.000000	99.439478
3198.000000	99.441332
3197.000000	99.443157
3196.000000	99.444594
3195.000000	99.445521
3194.000000	99.446295
3193.000000	99.447451
3192.000000	99.449148
3191.000000	99.451073
3190.000000	99.452792
3189.000000	99.454167
3188.000000	99.455376
3187.000000	99.456616
3186.000000	99.457915
3185.000000	99.459221
3184.000000	99.460548
3183.000000	99.461913
3182.000000	99.463225
3181.000000	99.464337
3180.000000	99.465247
3179.000000	99.466167
3178.000000	99.467342
3177.000000	99.468840
3176.000000	99.470551
3175.000000	99.472308
3174.000000	99.473962
3173.000000	99.475411
3172.000000	99.476643
3171.000000	99.477781
3170.000000	99.478988
3169.000000	99.480313
3168.000000	99.481668
3167.000000	99.482968
3166.000000	99.484219
3165.000000	99.485478
3164.000000	99.486804
3163.000000	99.488258
3162.000000	99.489861
3161.000000	99.491544
3160.000000	99.493153
3159.000000	99.494595
3158.000000	99.495916
3157.000000	99.497239
3156.000000	99.498613
3155.000000	99.499987
3154.000000	99.501330
3153.000000	99.502674
3152.000000	99.504051
3151.000000	99.505441
3150.000000	99.506811
3149.000000	99.508176
3148.000000	99.509582
3147.000000	99.511046
3146.000000	99.512548
3145.000000	99.514055
3144.000000	99.515561
3143.000000	99.517085
3142.000000	99.518638
3141.000000	99.520215
3140.000000	99.521809
3139.000000	99.523412
3138.000000	99.525023
3137.000000	99.526647
3136.000000	99.528288
3135.000000	99.529950
3134.000000	99.531613
3133.000000	99.533256
3132.000000	99.534899
3131.000000	99.536585
3130.000000	99.538289
3129.000000	99.539924
3128.000000	99.541430
3127.000000	99.542842
3126.000000	99.544270
3125.000000	99.545837
3124.000000	99.547568
3123.000000	99.549319
3122.000000	99.550884
3121.000000	99.552201
3120.000000	99.553376
3119.000000	99.554505
3118.000000	99.555625
3117.000000	99.556874
3116.000000	99.558487
3115.000000	99.560503
3114.000000	99.562605
3113.000000	99.564403
3112.000000	99.565798
3111.000000	99.566963
3110.000000	99.568127
3109.000000	99.569466
3108.000000	99.571076
3107.000000	99.572931
3106.000000	99.574887
3105.000000	99.576769
3104.000000	99.578487
3103.000000	99.580091
3102.000000	99.581765
3101.000000	99.583668
3100.000000	99.585704
3099.000000	99.587506
3098.000000	99.588833
3097.000000	99.589860
3096.000000	99.590906
3095.000000	99.591990
3094.000000	99.592807
3093.000000	99.593141
3092.000000	99.593119
3091.000000	99.593104
3090.000000	99.593475
3089.000000	99.594440
3088.000000	99.595885
3087.000000	99.597405
3086.000000	99.598674
3085.000000	99.599749
3084.000000	99.600920
3083.000000	99.602309
3082.000000	99.603743
3081.000000	99.604992
3080.000000	99.605997
3079.000000	99.606854
3078.000000	99.607681
3077.000000	99.608573
3076.000000	99.609614
3075.000000	99.610840
3074.000000	99.612188
3073.000000	99.613506
3072.000000	99.614653
3071.000000	99.615608
3070.000000	99.616454
3069.000000	99.617328
3068.000000	99.618336
3067.000000	99.619501
3066.000000	99.620786
3065.000000	99.622104
3064.000000	99.623358
3063.000000	99.624490
3062.000000	99.625509
3061.000000	99.626482
3060.000000	99.627478
3059.000000	99.628515
3058.000000	99.629579
3057.000000	99.630663
3056.000000	99.631788
3055.000000	99.632974
3054.000000	99.634225
3053.000000	99.635533
3052.000000	99.636900
3051.000000	99.638309
3050.000000	99.639684
3049.000000	99.640918
3048.000000	99.641978
3047.000000	99.643036
3046.000000	99.644349
3045.000000	99.646001
3044.000000	99.647759
3043.000000	99.649319
3042.000000	99.650670
3041.000000	99.652050
3040.000000	99.653621
3039.000000	99.655315
3038.000000	99.657032
3037.000000	99.658802
3036.000000	99.660671
3035.000000	99.662585
3034.000000	99.664539
3033.000000	99.666685
3032.000000	99.669054
3031.000000	99.671292
3030.000000	99.672987
3029.000000	99.674274
3028.000000	99.675808
3027.000000	99.678043
3026.000000	99.680794
3025.000000	99.683478
3024.000000	99.685610
3023.000000	99.687074
3022.000000	99.688198
3021.000000	99.689656
3020.000000	99.692050
3019.000000	99.695430
3018.000000	99.699301
3017.000000	99.703142
3016.000000	99.706747
3015.000000	99.709969
3014.000000	99.712400
3013.000000	99.713659
3012.000000	99.714031
3011.000000	99.714591
3010.000000	99.716444
3009.000000	99.719805
3008.000000	99.724034
3007.000000	99.728647
3006.000000	99.733961
3005.000000	99.740256
3004.000000	99.746548
3003.000000	99.751023
3002.000000	99.752861
3001.000000	99.752865
3000.000000	99.752142
2999.000000	99.751050
2998.000000	99.749868
2997.000000	99.749610
2996.000000	99.751280
2995.000000	99.754826
2994.000000	99.759493
2993.000000	99.764694
2992.000000	99.770076
2991.000000	99.775423
2990.000000	99.781258
2989.000000	99.788755
2988.000000	99.797833
2987.000000	99.805955
2986.000000	99.810444
2985.000000	99.811957
2984.000000	99.814186
2983.000000	99.819814
2982.000000	99.828141
2981.000000	99.837088
2980.000000	99.846008
2979.000000	99.855239
2978.000000	99.863877
2977.000000	99.869661
2976.000000	99.871223
2975.000000	99.869598
2974.000000	99.867312
2973.000000	99.866180
2972.000000	99.865936
2971.000000	99.864954
2970.000000	99.862395
2969.000000	99.859522
2968.000000	99.858466
2967.000000	99.859661
2966.000000	99.861265
2965.000000	99.861584
2964.000000	99.861405
2963.000000	99.863000
2962.000000	99.867009
2961.000000	99.871327
2960.000000	99.873495
2959.000000	99.873631
2958.000000	99.874187
2957.000000	99.876742
2956.000000	99.879647
2955.000000	99.879482
2954.000000	99.874913
2953.000000	99.868649
2952.000000	99.865310
2951.000000	99.867679
2950.000000	99.875086
2949.000000	99.884532
2948.000000	99.892774
2947.000000	99.898104
2946.000000	99.901336
2945.000000	99.905119
2944.000000	99.911393
2943.000000	99.919319
2942.000000	99.926387
2941.000000	99.931703
2940.000000	99.937258
2939.000000	99.945745
2938.000000	99.957983
2937.000000	99.972656
2936.000000	99.987402
2935.000000	99.999557
2934.000000	100.007066
2933.000000	100.010101
2932.000000	100.011665
2931.000000	100.015468
2930.000000	100.022928
2929.000000	100.032615
2928.000000	100.042277
2927.000000	100.050602
2926.000000	100.057102
2925.000000	100.061349
2924.000000	100.062834
2923.000000	100.061060
2922.000000	100.055430
2921.000000	100.045459
2920.000000	100.031728
2919.000000	100.016627
2918.000000	100.003453
2917.000000	99.994127
2916.000000	99.987769
2915.000000	99.981914
2914.000000	99.975289
2913.000000	99.968920
2912.000000	99.964309
2911.000000	99.961243
2910.000000	99.958283
2909.000000	99.954936
2908.000000	99.952044
2907.000000	99.949868
2906.000000	99.947291
2905.000000	99.943801
2904.000000	99.941027
2903.000000	99.940571
2902.000000	99.940672
2901.000000	99.936919
2900.000000	99.927069
2899.000000	99.914351
2898.000000	99.904969
2897.000000	99.902663
2896.000000	99.906280
2895.000000	99.911742
2894.000000	99.915386
2893.000000	99.915769
2892.000000	99.913511
2891.000000	99.910298
2890.000000	99.907623
2889.000000	99.905808
2888.000000	99.904315
2887.000000	99.903115
2886.000000	99.903155
2885.000000	99.904875
2884.000000	99.906782
2883.000000	99.906629
2882.000000	99.904125
2881.000000	99.901502
2880.000000	99.900822
2879.000000	99.901434
2878.000000	99.900949
2877.000000	99.898430
2876.000000	99.895533
2875.000000	99.894214
2874.000000	99.894132
2873.000000	99.893097
2872.000000	99.889908
2871.000000	99.886104
2870.000000	99.884604
2869.000000	99.886831
2868.000000	99.891492
2867.000000	99.896110
2866.000000	99.899511
2865.000000	99.902494
2864.000000	99.906329
2863.000000	99.911293
2862.000000	99.916880
2861.000000	99.922704
2860.000000	99.928476
2859.000000	99.933403
2858.000000	99.936538
2857.000000	99.937970
2856.000000	99.939097
2855.000000	99.941291
2854.000000	99.944601
2853.000000	99.947818
2852.000000	99.949350
2851.000000	99.947749
2850.000000	99.941884
2849.000000	99.931571
2848.000000	99.918409
2847.000000	99.905410
2846.000000	99.894877
2845.000000	99.886583
2844.000000	99.878512
2843.000000	99.869475
2842.000000	99.860410
2841.000000	99.852861
2840.000000	99.846880
2839.000000	99.841332
2838.000000	99.836149
2837.000000	99.833280
2836.000000	99.834809
2835.000000	99.840443
2834.000000	99.847113
2833.000000	99.851058
2832.000000	99.850456
2831.000000	99.846271
2830.000000	99.841004
2829.000000	99.836798
2828.000000	99.834582
2827.000000	99.834383
2826.000000	99.835490
2825.000000	99.836198
2824.000000	99.834523
2823.000000	99.830206
2822.000000	99.825596
2821.000000	99.823664
2820.000000	99.825275
2819.000000	99.828963
2818.000000	99.832737
2817.000000	99.835112
2816.000000	99.834951
2815.000000	99.832008
2814.000000	99.828056
2813.000000	99.826107
2812.000000	99.827626
2811.000000	99.831267
2810.000000	99.834627
2809.000000	99.836566
2808.000000	99.837364
2807.000000	99.837489
2806.000000	99.837120
2805.000000	99.836453
2804.000000	99.835737
2803.000000	99.835119
2802.000000	99.834847
2801.000000	99.835350
2800.000000	99.836650
2799.000000	99.837962
2798.000000	99.838402
2797.000000	99.837920
2796.000000	99.837152
2795.000000	99.836557
2794.000000	99.836090
2793.000000	99.835574
2792.000000	99.835030
2791.000000	99.834755
2790.000000	99.835255
2789.000000	99.836861
2788.000000	99.839172
2787.000000	99.841163
2786.000000	99.842155
2785.000000	99.842486
2784.000000	99.842924
2783.000000	99.843653
2782.000000	99.844179
2781.000000	99.844176
2780.000000	99.844006
2779.000000	99.844264
2778.000000	99.845130
2777.000000	99.846329
2776.000000	99.847538
2775.000000	99.848649
2774.000000	99.849680
2773.000000	99.850607
2772.000000	99.851370
2771.000000	99.851995
2770.000000	99.852594
2769.000000	99.853228
2768.000000	99.853842
2767.000000	99.854380
2766.000000	99.854928
2765.000000	99.855630
2764.000000	99.856488
2763.000000	99.857329
2762.000000	99.858009
2761.000000	99.858573
2760.000000	99.859170
2759.000000	99.859866
2758.000000	99.860606
2757.000000	99.861319
2756.000000	99.861982
2755.000000	99.862607
2754.000000	99.863228
2753.000000	99.863896
2752.000000	99.864638
2751.000000	99.865424
2750.000000	99.866183
2749.000000	99.866850
2748.000000	99.867390
2747.000000	99.867797
2746.000000	99.868102
2745.000000	99.868410
2744.000000	99.868844
2743.000000	99.869453
2742.000000	99.870178
2741.000000	99.870916
2740.000000	99.871594
2739.000000	99.872184
2738.000000	99.872700
2737.000000	99.873198
2736.000000	99.873731
2735.000000	99.874302
2734.000000	99.874857
2733.000000	99.875336
2732.000000	99.875735
2731.000000	99.876097
2730.000000	99.876469
2729.000000	99.876866
2728.000000	99.877275
2727.000000	99.877680
2726.000000	99.878068
2725.000000	99.878435
2724.000000	99.878788
2723.000000	99.879137
2722.000000	99.879493
2721.000000	99.879862
2720.000000	99.880239
2719.000000	99.880614
2718.000000	99.880980
2717.000000	99.881338
2716.000000	99.881693
2715.000000	99.882052
2714.000000	99.882414
2713.000000	99.882778
2712.000000	99.883140
2711.000000	99.883494
2710.000000	99.883830
2709.000000	99.884143
2708.000000	99.884431
2707.000000	99.884701
2706.000000	99.884963
2705.000000	99.885226
2704.000000	99.885496
2703.000000	99.885771
2702.000000	99.886037
2701.000000	99.886278
2700.000000	99.886481
2699.000000	99.886649
2698.000000	99.886790
2697.000000	99.886920
2696.000000	99.887047
2695.000000	99.887172
2694.000000	99.887291
2693.000000	99.887402
2692.000000	99.887508
2691.000000	99.887611
2690.000000	99.887712
2689.000000	99.887806
2688.000000	99.887891
2687.000000	99.887968
2686.000000	99.888040
2685.000000	99.888113
2684.000000	99.888188
2683.000000	99.888265
2682.000000	99.888340
2681.000000	99.888408
2680.000000	99.888464
2679.000000	99.888504
2678.000000	99.888525
2677.000000	99.888531
2676.000000	99.888530
2675.000000	99.888528
2674.000000	99.888528
2673.000000	99.888522
2672.000000	99.888504
2671.000000	99.888471
2670.000000	99.888423
2669.000000	99.888366
2668.000000	99.888302
2667.000000	99.888238
2666.000000	99.888181
2665.000000	99.888135
2664.000000	99.888100
2663.000000	99.888058
2662.000000	99.887981
2661.000000	99.887843
2660.000000	99.887649
2659.000000	99.887440
2658.000000	99.887279
2657.000000	99.887224
2656.000000	99.887281
2655.000000	99.887406
2654.000000	99.887541
2653.000000	99.887645
2652.000000	99.887708
2651.000000	99.887731
2650.000000	99.887727
2649.000000	99.887719
2648.000000	99.887734
2647.000000	99.887785
2646.000000	99.887863
2645.000000	99.887947
2644.000000	99.888019
2643.000000	99.888071
2642.000000	99.888107
2641.000000	99.888138
2640.000000	99.888186
2639.000000	99.888263
2638.000000	99.888371
2637.000000	99.888491
2636.000000	99.888603
2635.000000	99.888695
2634.000000	99.888779
2633.000000	99.888856
2632.000000	99.888910
2631.000000	99.888933
2630.000000	99.888940
2629.000000	99.888973
2628.000000	99.889061
2627.000000	99.889200
2626.000000	99.889363
2625.000000	99.889518
2624.000000	99.889642
2623.000000	99.889730
2622.000000	99.889808
2621.000000	99.889946
2620.000000	99.890216
2619.000000	99.890625
2618.000000	99.891068
2617.000000	99.891429
2616.000000	99.891705
2615.000000	99.891989
2614.000000	99.892350
2613.000000	99.892730
2612.000000	99.892964
2611.000000	99.892930
2610.000000	99.892679
2609.000000	99.892442
2608.000000	99.892440
2607.000000	99.892696
2606.000000	99.893074
2605.000000	99.893490
2604.000000	99.894005
2603.000000	99.894647
2602.000000	99.895312
2601.000000	99.895873
2600.000000	99.896278
2599.000000	99.896431
2598.000000	99.896185
2597.000000	99.895641
2596.000000	99.895291
2595.000000	99.895505
2594.000000	99.895937
2593.000000	99.895752
2592.000000	99.894561
2591.000000	99.892982
2590.000000	99.892165
2589.000000	99.892822
2588.000000	99.894897
2587.000000	99.897724
2586.000000	99.900363
2585.000000	99.902053
2584.000000	99.902585
2583.000000	99.902325
2582.000000	99.901784
2581.000000	99.901159
2580.000000	99.900426
2579.000000	99.899752
2578.000000	99.899441
2577.000000	99.899456
2576.000000	99.899284
2575.000000	99.898489
2574.000000	99.897244
2573.000000	99.896188
2572.000000	99.895758
2571.000000	99.895846
2570.000000	99.896071
2569.000000	99.896227
2568.000000	99.896436
2567.000000	99.896959
2566.000000	99.897945
2565.000000	99.899273
2564.000000	99.900522
2563.000000	99.901207
2562.000000	99.901175
2561.000000	99.900829
2560.000000	99.900844
2559.000000	99.901497
2558.000000	99.902317
2557.000000	99.902529
2556.000000	99.901871
2555.000000	99.900844
2554.000000	99.900162
2553.000000	99.900036
2552.000000	99.900179
2551.000000	99.900345
2550.000000	99.900618
2549.000000	99.901099
2548.000000	99.901640
2547.000000	99.902056
2546.000000	99.902375
2545.000000	99.902686
2544.000000	99.902893
2543.000000	99.902829
2542.000000	99.902565
2541.000000	99.902415
2540.000000	99.902620
2539.000000	99.903189
2538.000000	99.903997
2537.000000	99.904915
2536.000000	99.905784
2535.000000	99.906376
2534.000000	99.906522
2533.000000	99.906284
2532.000000	99.905940
2531.000000	99.905774
2530.000000	99.905859
2529.000000	99.906078
2528.000000	99.906259
2527.000000	99.906338
2526.000000	99.906419
2525.000000	99.906662
2524.000000	99.907100
2523.000000	99.907600
2522.000000	99.907980
2521.000000	99.908192
2520.000000	99.908358
2519.000000	99.908651
2518.000000	99.909127
2517.000000	99.909685
2516.000000	99.910172
2515.000000	99.910535
2514.000000	99.910861
2513.000000	99.911284
2512.000000	99.911839
2511.000000	99.912427
2510.000000	99.912913
2509.000000	99.913261
2508.000000	99.913558
2507.000000	99.913947
2506.000000	99.914502
2505.000000	99.915167
2504.000000	99.915771
2503.000000	99.916181
2502.000000	99.916415
2501.000000	99.916601
2500.000000	99.916834
2499.000000	99.917099
2498.000000	99.917364
2497.000000	99.917672
2496.000000	99.918086
2495.000000	99.918597
2494.000000	99.919130
2493.000000	99.919620
2492.000000	99.920032
2491.000000	99.920335
2490.000000	99.920520
2489.000000	99.920672
2488.000000	99.920964
2487.000000	99.921543
2486.000000	99.922452
2485.000000	99.923618
2484.000000	99.924848
2483.000000	99.925868
2482.000000	99.926495
2481.000000	99.926778
2480.000000	99.926930
2479.000000	99.927098
2478.000000	99.927281
2477.000000	99.927449
2476.000000	99.927642
2475.000000	99.927963
2474.000000	99.928504
2473.000000	99.929230
2472.000000	99.929890
2471.000000	99.930157
2470.000000	99.929951
2469.000000	99.929617
2468.000000	99.929656
2467.000000	99.930235
2466.000000	99.931095
2465.000000	99.931853
2464.000000	99.932370
2463.000000	99.932721
2462.000000	99.932972
2461.000000	99.933099
2460.000000	99.933098
2459.000000	99.933082
2458.000000	99.933227
2457.000000	99.933615
2456.000000	99.934120
2455.000000	99.934563
2454.000000	99.934975
2453.000000	99.935606
2452.000000	99.936625
2451.000000	99.937886
2450.000000	99.939040
2449.000000	99.939810
2448.000000	99.940085
2447.000000	99.939879
2446.000000	99.939369
2445.000000	99.938888
2444.000000	99.938696
2443.000000	99.938781
2442.000000	99.939014
2441.000000	99.939377
2440.000000	99.939948
2439.000000	99.940689
2438.000000	99.941406
2437.000000	99.941922
2436.000000	99.942222
2435.000000	99.942421
2434.000000	99.942667
2433.000000	99.943068
2432.000000	99.943626
2431.000000	99.944203
2430.000000	99.944653
2429.000000	99.944982
2428.000000	99.945286
2427.000000	99.945566
2426.000000	99.945727
2425.000000	99.945789
2424.000000	99.945937
2423.000000	99.946306
2422.000000	99.946842
2421.000000	99.947382
2420.000000	99.947786
2419.000000	99.947974
2418.000000	99.947930
2417.000000	99.947769
2416.000000	99.947745
2415.000000	99.948046
2414.000000	99.948634
2413.000000	99.949258
2412.000000	99.949687
2411.000000	99.949889
2410.000000	99.950011
2409.000000	99.950228
2408.000000	99.950570
2407.000000	99.950907
2406.000000	99.951107
2405.000000	99.951204
2404.000000	99.951374
2403.000000	99.951745
2402.000000	99.952274
2401.000000	99.952798
2400.000000	99.953190
2399.000000	99.953409
2398.000000	99.953438
2397.000000	99.953281
2396.000000	99.953008
2395.000000	99.952751
2394.000000	99.952619
2393.000000	99.952625
2392.000000	99.952707
2391.000000	99.952798
2390.000000	99.952869
2389.000000	99.952913
2388.000000	99.952922
2387.000000	99.952894
2386.000000	99.952847
2385.000000	99.952796
2384.000000	99.952745
2383.000000	99.952695
2382.000000	99.952647
2381.000000	99.952598
2380.000000	99.952541
2379.000000	99.952471
2378.000000	99.952385
2377.000000	99.952286
2376.000000	99.952176
2375.000000	99.952057
2374.000000	99.951929
2373.000000	99.951795
2372.000000	99.951657
2371.000000	99.951511
2370.000000	99.951354
2369.000000	99.951184
2368.000000	99.951010
2367.000000	99.950842
2366.000000	99.950690
2365.000000	99.950553
2364.000000	99.950426
2363.000000	99.950301
2362.000000	99.950165
2361.000000	99.950014
2360.000000	99.949851
2359.000000	99.949688
2358.000000	99.949532
2357.000000	99.949383
2356.000000	99.949244
2355.000000	99.949117
2354.000000	99.949005
2353.000000	99.948907
2352.000000	99.948818
2351.000000	99.948734
2350.000000	99.948648
2349.000000	99.948554
2348.000000	99.948447
2347.000000	99.948325
2346.000000	99.948194
2345.000000	99.948066
2344.000000	99.947949
2343.000000	99.947844
2342.000000	99.947741
2341.000000	99.947628
2340.000000	99.947499
2339.000000	99.947353
2338.000000	99.947197
2337.000000	99.947046
2336.000000	99.946913
2335.000000	99.946805
2334.000000	99.946720
2333.000000	99.946651
2332.000000	99.946589
2331.000000	99.946524
2330.000000	99.946455
2329.000000	99.946384
2328.000000	99.946321
2327.000000	99.946268
2326.000000	99.946218
2325.000000	99.946153
2324.000000	99.946060
2323.000000	99.945937
2322.000000	99.945790
2321.000000	99.945631
2320.000000	99.945472
2319.000000	99.945318
2318.000000	99.945175
2317.000000	99.945039
2316.000000	99.944904
2315.000000	99.944771
2314.000000	99.944640
2313.000000	99.944508
2312.000000	99.944360
2311.000000	99.944158
2310.000000	99.943850
2309.000000	99.943424
2308.000000	99.942941
2307.000000	99.942454
2306.000000	99.941975
2305.000000	99.941536
2304.000000	99.941223
2303.000000	99.941042
2302.000000	99.940828
2301.000000	99.940467
2300.000000	99.940124
2299.000000	99.940087
2298.000000	99.940415
2297.000000	99.940852
2296.000000	99.941064
2295.000000	99.940884
2294.000000	99.940343
2293.000000	99.939640
2292.000000	99.939061
2291.000000	99.938715
2290.000000	99.938406
2289.000000	99.937884
2288.000000	99.937191
2287.000000	99.936565
2286.000000	99.936043
2285.000000	99.935429
2284.000000	99.934661
2283.000000	99.933969
2282.000000	99.933583
2281.000000	99.933459
2280.000000	99.933358
2279.000000	99.933128
2278.000000	99.932808
2277.000000	99.932475
2276.000000	99.932101
2275.000000	99.931604
2274.000000	99.930992
2273.000000	99.930378
2272.000000	99.929889
2271.000000	99.929538
2270.000000	99.929258
2269.000000	99.928968
2268.000000	99.928635
2267.000000	99.928267
2266.000000	99.927884
2265.000000	99.927515
2264.000000	99.927187
2263.000000	99.926902
2262.000000	99.926636
2261.000000	99.926367
2260.000000	99.926089
2259.000000	99.925810
2258.000000	99.925532
2257.000000	99.925255
2256.000000	99.924979
2255.000000	99.924702
2254.000000	99.924428
2253.000000	99.924159
2252.000000	99.923896
2251.000000	99.923640
2250.000000	99.923387
2249.000000	99.923132
2248.000000	99.922875
2247.000000	99.922622
2246.000000	99.922383
2245.000000	99.922165
2244.000000	99.921971
2243.000000	99.921793
2242.000000	99.921628
2241.000000	99.921471
2240.000000	99.921321
2239.000000	99.921180
2238.000000	99.921059
2237.000000	99.920971
2236.000000	99.920919
2235.000000	99.920891
2234.000000	99.920866
2233.000000	99.920832
2232.000000	99.920793
2231.000000	99.920757
2230.000000	99.920707
2229.000000	99.920606
2228.000000	99.920431
2227.000000	99.920200
2226.000000	99.920024
2225.000000	99.920072
2224.000000	99.920424
2223.000000	99.920930
2222.000000	99.921313
2221.000000	99.921426
2220.000000	99.921332
2219.000000	99.921172
2218.000000	99.921024
2217.000000	99.920940
2216.000000	99.921012
2215.000000	99.921249
2214.000000	99.921453
2213.000000	99.921377
2212.000000	99.921022
2211.000000	99.920696
2210.000000	99.920745
2209.000000	99.921285
2208.000000	99.922116
2207.000000	99.922877
2206.000000	99.923380
2205.000000	99.923797
2204.000000	99.924389
2203.000000	99.925103
2202.000000	99.925662
2201.000000	99.926062
2200.000000	99.926563
2199.000000	99.927098
2198.000000	99.927216
2197.000000	99.926860
2196.000000	99.926736
2195.000000	99.927510
2194.000000	99.928901
2193.000000	99.929946
2192.000000	99.930007
2191.000000	99.929169
2190.000000	99.927990
2189.000000	99.927176
2188.000000	99.927215
2187.000000	99.927961
2186.000000	99.928658
2185.000000	99.928750
2184.000000	99.928496
2183.000000	99.928393
2182.000000	99.928292
2181.000000	99.927673
2180.000000	99.926633
2179.000000	99.925907
2178.000000	99.925863
2177.000000	99.926113
2176.000000	99.926297
2175.000000	99.926630
2174.000000	99.927472
2173.000000	99.928746
2172.000000	99.929972
2171.000000	99.930677
2170.000000	99.930730
2169.000000	99.930443
2168.000000	99.930330
2167.000000	99.930588
2166.000000	99.930881
2165.000000	99.930791
2164.000000	99.930327
2163.000000	99.929819
2162.000000	99.929456
2161.000000	99.929264
2160.000000	99.929407
2159.000000	99.930092
2158.000000	99.931181
2157.000000	99.932244
2156.000000	99.933079
2155.000000	99.933898
2154.000000	99.934903
2153.000000	99.935926
2152.000000	99.936601
2151.000000	99.936775
2150.000000	99.936583
2149.000000	99.936289
2148.000000	99.936120
2147.000000	99.936172
2146.000000	99.936394
2145.000000	99.936664
2144.000000	99.936856
2143.000000	99.936883
2142.000000	99.936766
2141.000000	99.936741
2140.000000	99.937159
2139.000000	99.938167
2138.000000	99.939525
2137.000000	99.940709
2136.000000	99.941361
2135.000000	99.941494
2134.000000	99.941390
2133.000000	99.941346
2132.000000	99.941491
2131.000000	99.941810
2130.000000	99.942231
2129.000000	99.942688
2128.000000	99.943138
2127.000000	99.943522
2126.000000	99.943787
2125.000000	99.943987
2124.000000	99.944297
2123.000000	99.944848
2122.000000	99.945572
2121.000000	99.946283
2120.000000	99.946880
2119.000000	99.947402
2118.000000	99.947893
2117.000000	99.948341
2116.000000	99.948748
2115.000000	99.949186
2114.000000	99.949720
2113.000000	99.950332
2112.000000	99.950943
2111.000000	99.951491
2110.000000	99.951943
2109.000000	99.952278
2108.000000	99.952507
2107.000000	99.952719
2106.000000	99.953039
2105.000000	99.953517
2104.000000	99.954099
2103.000000	99.954698
2102.000000	99.955293
2101.000000	99.955943
2100.000000	99.956708
2099.000000	99.957597
2098.000000	99.958527
2097.000000	99.959326
2096.000000	99.959830
2095.000000	99.960025
2094.000000	99.960095
2093.000000	99.960334
2092.000000	99.960944
2091.000000	99.961912
2090.000000	99.962951
2089.000000	99.963649
2088.000000	99.963792
2087.000000	99.963542
2086.000000	99.963316
2085.000000	99.963394
2084.000000	99.963722
2083.000000	99.964131
2082.000000	99.964620
2081.000000	99.965275
2080.000000	99.965995
2079.000000	99.966568
2078.000000	99.967058
2077.000000	99.967806
2076.000000	99.968844
2075.000000	99.969567
2074.000000	99.969320
2073.000000	99.968160
2072.000000	99.966808
2071.000000	99.965898
2070.000000	99.965601
2069.000000	99.965919
2068.000000	99.966812
2067.000000	99.967936
2066.000000	99.968749
2065.000000	99.969185
2064.000000	99.969838
2063.000000	99.971086
2062.000000	99.972379
2061.000000	99.972893
2060.000000	99.972625
2059.000000	99.972367
2058.000000	99.972619
2057.000000	99.972988
2056.000000	99.972809
2055.000000	99.971966
2054.000000	99.970891
2053.000000	99.969913
2052.000000	99.968883
2051.000000	99.967536
2050.000000	99.966095
2049.000000	99.965162
2048.000000	99.964814
2047.000000	99.964142
2046.000000	99.962134
2045.000000	99.958966
2044.000000	99.956024
2043.000000	99.954526
2042.000000	99.954477
2041.000000	99.954915
2040.000000	99.954849
2039.000000	99.953978
2038.000000	99.952795
2037.000000	99.952145
2036.000000	99.952382
2035.000000	99.952931
2034.000000	99.952954
2033.000000	99.952312
2032.000000	99.951369
2031.000000	99.950032
2030.000000	99.947861
2029.000000	99.945233
2028.000000	99.943454
2027.000000	99.943139
2026.000000	99.943393
2025.000000	99.943055
2024.000000	99.942198
2023.000000	99.941713
2022.000000	99.941878
2021.000000	99.942153
2020.000000	99.942129
2019.000000	99.941967
2018.000000	99.941889
2017.000000	99.941766
2016.000000	99.941354
2015.000000	99.940622
2014.000000	99.939699
2013.000000	99.938667
2012.000000	99.937497
2011.000000	99.936115
2010.000000	99.934574
2009.000000	99.933173
2008.000000	99.932271
2007.000000	99.931899
2006.000000	99.931734
2005.000000	99.931471
2004.000000	99.931100
2003.000000	99.930700
2002.000000	99.930189
2001.000000	99.929495
2000.000000	99.928761
1999.000000	99.928191
1998.000000	99.927810
1997.000000	99.927509
1996.000000	99.927235
1995.000000	99.926976
1994.000000	99.926642
1993.000000	99.926155
1992.000000	99.925624
1991.000000	99.925241
1990.000000	99.924963
1989.000000	99.924515
1988.000000	99.923748
1987.000000	99.922847
1986.000000	99.922177
1985.000000	99.921878
1984.000000	99.921815
1983.000000	99.921726
1982.000000	99.921484
1981.000000	99.921141
1980.000000	99.920814
1979.000000	99.920565
1978.000000	99.920350
1977.000000	99.920073
1976.000000	99.919689
1975.000000	99.919258
1974.000000	99.918875
1973.000000	99.918585
1972.000000	99.918365
1971.000000	99.918154
1970.000000	99.917866
1969.000000	99.917433
1968.000000	99.916873
1967.000000	99.916310
1966.000000	99.915871
1965.000000	99.915564
1964.000000	99.915317
1963.000000	99.915100
1962.000000	99.914940
1961.000000	99.914846
1960.000000	99.914763
1959.000000	99.914598
1958.000000	99.914280
1957.000000	99.913804
1956.000000	99.913248
1955.000000	99.912726
1954.000000	99.912280
1953.000000	99.911863
1952.000000	99.911436
1951.000000	99.911010
1950.000000	99.910517
1949.000000	99.909828
1948.000000	99.908977
1947.000000	99.908237
1946.000000	99.907791
1945.000000	99.907409
1944.000000	99.906693
1943.000000	99.905623
1942.000000	99.904636
1941.000000	99.904050
1940.000000	99.903668
1939.000000	99.903084
1938.000000	99.902135
1937.000000	99.900901
1936.000000	99.899542
1935.000000	99.898332
1934.000000	99.897701
1933.000000	99.897882
1932.000000	99.898519
1931.000000	99.898784
1930.000000	99.898079
1929.000000	99.896460
1928.000000	99.894301
1927.000000	99.891875
1926.000000	99.889359
1925.000000	99.887187
1924.000000	99.886043
1923.000000	99.886245
1922.000000	99.887244
1921.000000	99.888002
1920.000000	99.887801
1919.000000	99.886580
1918.000000	99.884729
1917.000000	99.882755
1916.000000	99.880908
1915.000000	99.878894
1914.000000	99.876205
1913.000000	99.872725
1912.000000	99.869058
1911.000000	99.866268
1910.000000	99.865237
1909.000000	99.866065
1908.000000	99.867736
1907.000000	99.868766
1906.000000	99.868099
1905.000000	99.865695
1904.000000	99.862468
1903.000000	99.859412
1902.000000	99.856861
1901.000000	99.854466
1900.000000	99.851487
1899.000000	99.847462
1898.000000	99.842757
1897.000000	99.838450
1896.000000	99.835431
1895.000000	99.833510
1894.000000	99.831829
1893.000000	99.830073
1892.000000	99.828630
1891.000000	99.827806
1890.000000	99.827464
1889.000000	99.827435
1888.000000	99.827869
1887.000000	99.828472
1886.000000	99.828118
1885.000000	99.825894
1884.000000	99.822301
1883.000000	99.819008
1882.000000	99.817595
1881.000000	99.818556
1880.000000	99.820867
1879.000000	99.822654
1878.000000	99.822727
1877.000000	99.821482
1876.000000	99.820245
1875.000000	99.819505
1874.000000	99.818255
1873.000000	99.815638
1872.000000	99.812716
1871.000000	99.811921
1870.000000	99.814680
1869.000000	99.819521
1868.000000	99.823383
1867.000000	99.825201
1866.000000	99.826121
1865.000000	99.827282
1864.000000	99.828940
1863.000000	99.830761
1862.000000	99.832270
1861.000000	99.833318
1860.000000	99.834344
1859.000000	99.836019
1858.000000	99.838378
1857.000000	99.840517
1856.000000	99.841495
1855.000000	99.841673
1854.000000	99.842711
1853.000000	99.846158
1852.000000	99.851427
1851.000000	99.856137
1850.000000	99.858536
1849.000000	99.858872
1848.000000	99.858694
1847.000000	99.859352
1846.000000	99.861524
1845.000000	99.865180
1844.000000	99.869017
1843.000000	99.871512
1842.000000	99.872518
1841.000000	99.872564
1840.000000	99.872006
1839.000000	99.871065
1838.000000	99.869754
1837.000000	99.868305
1836.000000	99.867514
1835.000000	99.868073
1834.000000	99.869700
1833.000000	99.871165
1832.000000	99.871222
1831.000000	99.869922
1830.000000	99.868575
1829.000000	99.868205
1828.000000	99.868669
1827.000000	99.869183
1826.000000	99.869369
1825.000000	99.869234
1824.000000	99.868787
1823.000000	99.868268
1822.000000	99.868160
1821.000000	99.868833
1820.000000	99.870195
1819.000000	99.871763
1818.000000	99.872924
1817.000000	99.873248
1816.000000	99.872713
1815.000000	99.871564
1814.000000	99.870137
1813.000000	99.868645
1812.000000	99.867285
1811.000000	99.866440
1810.000000	99.866557
1809.000000	99.867898
1808.000000	99.870174
1807.000000	99.872313
1806.000000	99.873071
1805.000000	99.872042
1804.000000	99.870032
1803.000000	99.868429
1802.000000	99.868197
1801.000000	99.869197
1800.000000	99.870465
1799.000000	99.871180
1798.000000	99.871306
1797.000000	99.871450
1796.000000	99.872214
1795.000000	99.873650
1794.000000	99.875380
1793.000000	99.876850
1792.000000	99.877710
1791.000000	99.878313
1790.000000	99.879277
1789.000000	99.880692
1788.000000	99.882285
1787.000000	99.883893
1786.000000	99.885527
1785.000000	99.887139
1784.000000	99.888534
1783.000000	99.889549
1782.000000	99.890631
1781.000000	99.892511
1780.000000	99.895204
1779.000000	99.897823
1778.000000	99.899543
1777.000000	99.900375
1776.000000	99.900729
1775.000000	99.900926
1774.000000	99.901572
1773.000000	99.903535
1772.000000	99.906549
1771.000000	99.909307
1770.000000	99.911157
1769.000000	99.912280
1768.000000	99.913087
1767.000000	99.913681
1766.000000	99.914177
1765.000000	99.915170
1764.000000	99.917742
1763.000000	99.922580
1762.000000	99.928664
1761.000000	99.933624
1760.000000	99.936456
1759.000000	99.937567
1758.000000	99.937652
1757.000000	99.937637
1756.000000	99.938287
1755.000000	99.939969
1754.000000	99.942441
1753.000000	99.945321
1752.000000	99.948301
1751.000000	99.951085
1750.000000	99.953872
1749.000000	99.957304
1748.000000	99.960824
1747.000000	99.962735
1746.000000	99.962661
1745.000000	99.962034
1744.000000	99.962600
1743.000000	99.964681
1742.000000	99.967026
1741.000000	99.968572
1740.000000	99.969982
1739.000000	99.972455
1738.000000	99.975931
1737.000000	99.978934
1736.000000	99.980493
1735.000000	99.980329
1734.000000	99.976754
1733.000000	99.970963
1732.000000	99.967840
1731.000000	99.967576
1730.000000	99.967577
1729.000000	99.966685
1728.000000	99.965164
1727.000000	99.963687
1726.000000	99.962929
1725.000000	99.963193
1724.000000	99.964406
1723.000000	99.965936
1722.000000	99.966602
1721.000000	99.965749
1720.000000	99.964294
1719.000000	99.964504
1718.000000	99.966294
1717.000000	99.965598
1716.000000	99.961226
1715.000000	99.955495
1714.000000	99.949837
1713.000000	99.945317
1712.000000	99.943146
1711.000000	99.943174
1710.000000	99.943679
1709.000000	99.942936
1708.000000	99.940516
1707.000000	99.937300
1706.000000	99.934041
1705.000000	99.930513
1704.000000	99.926406
1703.000000	99.921515
1702.000000	99.916390
1701.000000	99.912918
1700.000000	99.911456
1699.000000	99.910827
1698.000000	99.909599
1697.000000	99.906921
1696.000000	99.903924
1695.000000	99.901736
1694.000000	99.900467
1693.000000	99.899223
1692.000000	99.897600
1691.000000	99.896202
1690.000000	99.894935
1689.000000	99.892645
1688.000000	99.888378
1687.000000	99.882523
1686.000000	99.876700
1685.000000	99.873019
1684.000000	99.871371
1683.000000	99.870102
1682.000000	99.869261
1681.000000	99.868880
1680.000000	99.868881
1679.000000	99.869047
1678.000000	99.868653
1677.000000	99.867248
1676.000000	99.865238
1675.000000	99.863241
1674.000000	99.861729
1673.000000	99.860508
1672.000000	99.858868
1671.000000	99.856481
1670.000000	99.853174
1669.000000	99.848818
1668.000000	99.844301
1667.000000	99.840900
1666.000000	99.838848
1665.000000	99.837427
1664.000000	99.835950
1663.000000	99.834043
1662.000000	99.832080
1661.000000	99.831046
1660.000000	99.830941
1659.000000	99.830932
1658.000000	99.830528
1657.000000	99.829594
1656.000000	99.827941
1655.000000	99.826576
1654.000000	99.827234
1653.000000	99.826055
1652.000000	99.821538
1651.000000	99.819225
1650.000000	99.817842
1649.000000	99.814622
1648.000000	99.811385
1647.000000	99.810966
1646.000000	99.812600
1645.000000	99.814109
1644.000000	99.815046
1643.000000	99.815145
1642.000000	99.814108
1641.000000	99.812006
1640.000000	99.809040
1639.000000	99.805809
1638.000000	99.803394
1637.000000	99.803219
1636.000000	99.804115
1635.000000	99.802215
1634.000000	99.798404
1633.000000	99.796155
1632.000000	99.796482
1631.000000	99.799147
1630.000000	99.803362
1629.000000	99.807617
1628.000000	99.810540
1627.000000	99.812091
1626.000000	99.813494
1625.000000	99.815347
1624.000000	99.816588
1623.000000	99.815818
1622.000000	99.814456
1621.000000	99.815537
1620.000000	99.818773
1619.000000	99.821268
1618.000000	99.821106
1617.000000	99.819450
1616.000000	99.819394
1615.000000	99.822355
1614.000000	99.826540
1613.000000	99.830188
1612.000000	99.833819
1611.000000	99.838171
1610.000000	99.842731
1609.000000	99.846827
1608.000000	99.850532
1607.000000	99.853834
1606.000000	99.856523
1605.000000	99.858678
1604.000000	99.860514
1603.000000	99.862286
1602.000000	99.864304
1601.000000	99.866804
1600.000000	99.869662
1599.000000	99.872501
1598.000000	99.875176
1597.000000	99.877843
1596.000000	99.880608
1595.000000	99.883403
1594.000000	99.886350
1593.000000	99.889799
1592.000000	99.893718
1591.000000	99.897455
1590.000000	99.900445
1589.000000	99.902829
1588.000000	99.905087
1587.000000	99.907363
1586.000000	99.909458
1585.000000	99.911430
1584.000000	99.913609
1583.000000	99.916237
1582.000000	99.919331
1581.000000	99.922687
1580.000000	99.925789
1579.000000	99.928135
1578.000000	99.929926
1577.000000	99.932192
1576.000000	99.935375
1575.000000	99.938479
1574.000000	99.940809
1573.000000	99.942632
1572.000000	99.944800
1571.000000	99.948204
1570.000000	99.952282
1569.000000	99.955177
1568.000000	99.956433
1567.000000	99.957320
1566.000000	99.958923
1565.000000	99.961549
1564.000000	99.964484
1563.000000	99.966460
1562.000000	99.966685
1561.000000	99.966096
1560.000000	99.967426
1559.000000	99.971115
1558.000000	99.972725
1557.000000	99.973334
1556.000000	99.974898
1555.000000	99.976640
1554.000000	99.977866
1553.000000	99.977932
1552.000000	99.977064
1551.000000	99.976326
1550.000000	99.976523
1549.000000	99.977269
1548.000000	99.977969
1547.000000	99.978871
1546.000000	99.980699
1545.000000	99.983405
1544.000000	99.985672
1543.000000	99.986594
1542.000000	99.986564
1541.000000	99.985762
1540.000000	99.982608
1539.000000	99.977201
1538.000000	99.973825
1537.000000	99.973649
1536.000000	99.974538
1535.000000	99.975167
1534.000000	99.974824
1533.000000	99.972456
1532.000000	99.968798
1531.000000	99.966088
1530.000000	99.964952
1529.000000	99.964660
1528.000000	99.964420
1527.000000	99.963740
1526.000000	99.962499
1525.000000	99.960942
1524.000000	99.959656
1523.000000	99.959581
1522.000000	99.960819
1521.000000	99.961177
1520.000000	99.959689
1519.000000	99.957968
1518.000000	99.956783
1517.000000	99.955442
1516.000000	99.952912
1515.000000	99.949351
1514.000000	99.945978
1513.000000	99.943656
1512.000000	99.942794
1511.000000	99.942995
1510.000000	99.943134
1509.000000	99.942814
1508.000000	99.943672
1507.000000	99.946412
1506.000000	99.947285
1505.000000	99.946565
1504.000000	99.946815
1503.000000	99.947577
1502.000000	99.948084
1501.000000	99.948120
1500.000000	99.947559
1499.000000	99.946802
1498.000000	99.947197
1497.000000	99.949630
1496.000000	99.953482
1495.000000	99.957363
1494.000000	99.959794
1493.000000	99.959500
1492.000000	99.956423
1491.000000	99.952310
1490.000000	99.949413
1489.000000	99.948472
1488.000000	99.949324
1487.000000	99.951668
1486.000000	99.954335
1485.000000	99.956283
1484.000000	99.957315
1483.000000	99.958347
1482.000000	99.960787
1481.000000	99.964675
1480.000000	99.968225
1479.000000	99.969479
1478.000000	99.967993
1477.000000	99.964994
1476.000000	99.962938
1475.000000	99.963878
1474.000000	99.968569
1473.000000	99.975480
1472.000000	99.980955
1471.000000	99.983869
1470.000000	99.985898
1469.000000	99.987845
1468.000000	99.989976
1467.000000	99.992904
1466.000000	99.996973
1465.000000	100.001075
1464.000000	100.003135
1463.000000	100.003448
1462.000000	100.003632
1461.000000	100.004060
1460.000000	100.004209
1459.000000	100.004585
1458.000000	100.006865
1457.000000	100.009083
1456.000000	100.007799
1455.000000	100.004642
1454.000000	100.000681
1453.000000	99.995270
1452.000000	99.989646
1451.000000	99.985680
1450.000000	99.984088
1449.000000	99.984206
1448.000000	99.985265
1447.000000	99.986001
1446.000000	99.984973
1445.000000	99.980956
1444.000000	99.973515
1443.000000	99.964655
1442.000000	99.958063
1441.000000	99.956033
1440.000000	99.957455
1439.000000	99.959733
1438.000000	99.961241
1437.000000	99.961555
1436.000000	99.961152
1435.000000	99.961776
1434.000000	99.963860
1433.000000	99.965741
1432.000000	99.965997
1431.000000	99.964490
1430.000000	99.962438
1429.000000	99.961263
1428.000000	99.961314
1427.000000	99.961599
1426.000000	99.961566
1425.000000	99.962135
1424.000000	99.963747
1423.000000	99.965053
1422.000000	99.964530
1421.000000	99.962842
1420.000000	99.962719
1419.000000	99.965773
1418.000000	99.969766
1417.000000	99.971577
1416.000000	99.970961
1415.000000	99.970222
1414.000000	99.972111
1413.000000	99.977700
1412.000000	99.985603
1411.000000	99.992969
1410.000000	99.997561
1409.000000	99.998950
1408.000000	99.998150
1407.000000	99.996395
1406.000000	99.994868
1405.000000	99.995027
1404.000000	99.997503
1403.000000	100.000870
1402.000000	100.002585
1401.000000	100.001757
1400.000000	100.000627
1399.000000	100.002432
1398.000000	100.007465
1397.000000	100.013050
1396.000000	100.017199
1395.000000	100.019877
1394.000000	100.021732
1393.000000	100.023066
1392.000000	100.023948
1391.000000	100.024818
1390.000000	100.026471
1389.000000	100.029543
1388.000000	100.034056
1387.000000	100.039043
1386.000000	100.043152
1385.000000	100.045945
1384.000000	100.047980
1383.000000	100.050170
1382.000000	100.052824
1381.000000	100.055350
1380.000000	100.056903
1379.000000	100.056632
1378.000000	100.053876
1377.000000	100.049083
1376.000000	100.044390
1375.000000	100.042142
1374.000000	100.042413
1373.000000	100.043065
1372.000000	100.043018
1371.000000	100.043200
1370.000000	100.044414
1369.000000	100.045933
1368.000000	100.046445
1367.000000	100.045986
1366.000000	100.045539
1365.000000	100.045180
1364.000000	100.044047
1363.000000	100.041825
1362.000000	100.039407
1361.000000	100.037945
1360.000000	100.037903
1359.000000	100.039353
1358.000000	100.042329
1357.000000	100.046301
1356.000000	100.049908
1355.000000	100.051906
1354.000000	100.052337
1353.000000	100.052176
1352.000000	100.052163
1351.000000	100.052059
1350.000000	100.051298
1349.000000	100.050020
1348.000000	100.049002
1347.000000	100.048817
1346.000000	100.049310
1345.000000	100.049917
1344.000000	100.050207
1343.000000	100.049992
1342.000000	100.049186
1341.000000	100.047932
1340.000000	100.046893
1339.000000	100.047071
1338.000000	100.048971
1337.000000	100.051928
1336.000000	100.054383
1335.000000	100.054987
1334.000000	100.053507
1333.000000	100.050853
1332.000000	100.048279
1331.000000	100.046511
1330.000000	100.045819
1329.000000	100.046578
1328.000000	100.049083
1327.000000	100.052518
1326.000000	100.054855
1325.000000	100.054546
1324.000000	100.052073
1323.000000	100.049482
1322.000000	100.048321
1321.000000	100.048498
1320.000000	100.049218
1319.000000	100.050216
1318.000000	100.051531
1317.000000	100.052633
1316.000000	100.052666
1315.000000	100.051559
1314.000000	100.050325
1313.000000	100.050038
1312.000000	100.050779
1311.000000	100.051800
1310.000000	100.052480
1309.000000	100.052794
1308.000000	100.052969
1307.000000	100.052992
1306.000000	100.052750
1305.000000	100.052484
1304.000000	100.052586
1303.000000	100.052838
1302.000000	100.052253
1301.000000	100.050239
1300.000000	100.047798
1299.000000	100.046901
1298.000000	100.048381
1297.000000	100.050899
1296.000000	100.052273
1295.000000	100.051570
1294.000000	100.049670
1293.000000	100.048107
1292.000000	100.047716
1291.000000	100.048141
1290.000000	100.048311
1289.000000	100.047443
1288.000000	100.045625
1287.000000	100.043290
1286.000000	100.040300
1285.000000	100.036209
1284.000000	100.031583
1283.000000	100.028304
1282.000000	100.027840
1281.000000	100.029456
1280.000000	100.030706
1279.000000	100.029826
1278.000000	100.027461
1277.000000	100.025961
1276.000000	100.026981
1275.000000	100.029793
1274.000000	100.032036
1273.000000	100.032020
1272.000000	100.029879
1271.000000	100.026538
1270.000000	100.022536
1269.000000	100.018451
1268.000000	100.015500
1267.000000	100.014775
1266.000000	100.016479
1265.000000	100.020773
1264.000000	100.028177
1263.000000	100.037449
1262.000000	100.044132
1261.000000	100.044024
1260.000000	100.038135
1259.000000	100.031765
1258.000000	100.027985
1257.000000	100.024532
1256.000000	100.018286
1255.000000	100.010219
1254.000000	100.003986
1253.000000	100.001276
1252.000000	100.000731
1251.000000	100.000298
1250.000000	99.998333
1249.000000	99.993034
1248.000000	99.983319
1247.000000	99.970824
1246.000000	99.959246
1245.000000	99.950789
1244.000000	99.944285
1243.000000	99.937381
1242.000000	99.929519
1241.000000	99.921875
1240.000000	99.914944
1239.000000	99.907276
1238.000000	99.896976
1237.000000	99.884123
1236.000000	99.871345
1235.000000	99.861779
1234.000000	99.856264
1233.000000	99.852187
1232.000000	99.844637
1231.000000	99.829028
1230.000000	99.804250
1229.000000	99.774563
1228.000000	99.747574
1227.000000	99.728284
1226.000000	99.714389
1225.000000	99.698550
1224.000000	99.675434
1223.000000	99.645362
1222.000000	99.611273
1221.000000	99.574052
1220.000000	99.532060
1219.000000	99.484198
1218.000000	99.431965
1217.000000	99.378598
1216.000000	99.326829
1215.000000	99.277321
1214.000000	99.228970
1213.000000	99.180846
1212.000000	99.133517
1211.000000	99.087827
1210.000000	99.043083
1209.000000	98.997647
1208.000000	98.950611
1207.000000	98.901470
1206.000000	98.849467
1205.000000	98.795567
1204.000000	98.743827
1203.000000	98.697443
1202.000000	98.653894
1201.000000	98.607445
1200.000000	98.556290
1199.000000	98.503724
1198.000000	98.452224
1197.000000	98.400653
1196.000000	98.348258
1195.000000	98.297104
1194.000000	98.248592
1193.000000	98.200986
1192.000000	98.152488
1191.000000	98.104002
1190.000000	98.056948
1189.000000	98.010753
1188.000000	97.964161
1187.000000	97.916758
1186.000000	97.867592
1185.000000	97.814431
1184.000000	97.755956
1183.000000	97.693104
1182.000000	97.627383
1181.000000	97.559641
1180.000000	97.490906
1179.000000	97.422200
1178.000000	97.353039
1177.000000	97.282369
1176.000000	97.210985
1175.000000	97.140304
1174.000000	97.069131
1173.000000	96.995202
1172.000000	96.919736
1171.000000	96.846215
1170.000000	96.774548
1169.000000	96.701273
1168.000000	96.626515
1167.000000	96.556092
1166.000000	96.495716
1165.000000	96.448026
1164.000000	96.416529
1163.000000	96.406855
1162.000000	96.421142
1161.000000	96.454226
1160.000000	96.495927
1159.000000	96.533553
1158.000000	96.553529
1157.000000	96.547325
1156.000000	96.517906
1155.000000	96.476429
1154.000000	96.430903
1153.000000	96.381347
1152.000000	96.326389
1151.000000	96.268859
1150.000000	96.212788
1149.000000	96.159696
1148.000000	96.109701
1147.000000	96.061493
1146.000000	96.010080
1145.000000	95.950520
1144.000000	95.885876
1143.000000	95.825380
1142.000000	95.771995
1141.000000	95.718148
1140.000000	95.657366
1139.000000	95.593638
1138.000000	95.534487
1137.000000	95.480168
1136.000000	95.425432
1135.000000	95.368215
1134.000000	95.311012
1133.000000	95.255796
1132.000000	95.201799
1131.000000	95.146800
1130.000000	95.088008
1129.000000	95.023644
1128.000000	94.955535
1127.000000	94.888079
1126.000000	94.823493
1125.000000	94.760707
1124.000000	94.699131
1123.000000	94.639382
1122.000000	94.579853
1121.000000	94.517563
1120.000000	94.453561
1119.000000	94.392306
1118.000000	94.334336
1117.000000	94.275008
1116.000000	94.211964
1115.000000	94.148163
1114.000000	94.085941
1113.000000	94.024386
1112.000000	93.964552
1111.000000	93.910409
1110.000000	93.861956
1109.000000	93.813738
1108.000000	93.763012
1107.000000	93.713324
1106.000000	93.666981
1105.000000	93.619940
1104.000000	93.567682
1103.000000	93.511684
1102.000000	93.457454
1101.000000	93.409445
1100.000000	93.368707
1099.000000	93.331348
1098.000000	93.290017
1097.000000	93.242070
1096.000000	93.194165
1095.000000	93.152395
1094.000000	93.110991
1093.000000	93.060309
1092.000000	93.004212
1091.000000	92.957975
1090.000000	92.928048
1089.000000	92.904908
1088.000000	92.877828
1087.000000	92.845848
1086.000000	92.811443
1085.000000	92.774427
1084.000000	92.736944
1083.000000	92.705477
1082.000000	92.682676
1081.000000	92.663657
1080.000000	92.643260
1079.000000	92.620251
1078.000000	92.593143
1077.000000	92.559830
1076.000000	92.522650
1075.000000	92.485065
1074.000000	92.441825
1073.000000	92.381959
1072.000000	92.303563
1071.000000	92.216569
1070.000000	92.128457
1069.000000	92.036162
1068.000000	91.935109
1067.000000	91.826329
1066.000000	91.710382
1065.000000	91.583752
1064.000000	91.447362
1063.000000	91.311965
1062.000000	91.189823
1061.000000	91.085537
1060.000000	90.997064
1059.000000	90.919070
1058.000000	90.843450
1057.000000	90.763314
1056.000000	90.677743
1055.000000	90.587083
1054.000000	90.485701
1053.000000	90.368498
1052.000000	90.243195
1051.000000	90.123991
1050.000000	90.011564
1049.000000	89.892412
1048.000000	89.759188
1047.000000	89.617858
1046.000000	89.474691
1045.000000	89.330447
1044.000000	89.187704
1043.000000	89.050243
1042.000000	88.914364
1041.000000	88.773774
1040.000000	88.633629
1039.000000	88.505957
1038.000000	88.390434
1037.000000	88.274699
1036.000000	88.155634
1035.000000	88.044710
1034.000000	87.948969
1033.000000	87.862459
1032.000000	87.780615
1031.000000	87.708157
1030.000000	87.647614
1029.000000	87.593596
1028.000000	87.542947
1027.000000	87.497828
1026.000000	87.455512
1025.000000	87.408716
1024.000000	87.359068
1023.000000	87.316347
1022.000000	87.281515
1021.000000	87.244688
1020.000000	87.202589
1019.000000	87.162778
1018.000000	87.127196
1017.000000	87.087542
1016.000000	87.041414
1015.000000	86.997345
1014.000000	86.958353
1013.000000	86.915515
1012.000000	86.863819
1011.000000	86.810514
1010.000000	86.762039
1009.000000	86.716359
1008.000000	86.673826
1007.000000	86.641778
1006.000000	86.621861
1005.000000	86.605084
1004.000000	86.585473
1003.000000	86.567495
1002.000000	86.555217
1001.000000	86.545782
1000.000000	86.537808
999.000000	86.534403
998.000000	86.533955
997.000000	86.530057
996.000000	86.524469
995.000000	86.527744
994.000000	86.542909
993.000000	86.560600
992.000000	86.574294
991.000000	86.588317
990.000000	86.606618
989.000000	86.626088
988.000000	86.645617
987.000000	86.670203
986.000000	86.701852
985.000000	86.737554
984.000000	86.779463
983.000000	86.834962
982.000000	86.903234
981.000000	86.974496
980.000000	87.047001
979.000000	87.131940
978.000000	87.235846
977.000000	87.350034
976.000000	87.463616
975.000000	87.576834
974.000000	87.695026
973.000000	87.818186
972.000000	87.942885
971.000000	88.068339
970.000000	88.196081
969.000000	88.328269
968.000000	88.467538
967.000000	88.612915
966.000000	88.756635
965.000000	88.892381
964.000000	89.025119
963.000000	89.163677
962.000000	89.304763
961.000000	89.435017
960.000000	89.549443
959.000000	89.657504
958.000000	89.769669
957.000000	89.887220
956.000000	90.006567
955.000000	90.123858
954.000000	90.233269
953.000000	90.329907
952.000000	90.417134
951.000000	90.503702
950.000000	90.592057
949.000000	90.676694
948.000000	90.754421
947.000000	90.827768
946.000000	90.897411
945.000000	90.959818
944.000000	91.014434
943.000000	91.065939
942.000000	91.117773
941.000000	91.169356
940.000000	91.219889
939.000000	91.268894
938.000000	91.314350
937.000000	91.357251
936.000000	91.405601
935.000000	91.465083
934.000000	91.527749
933.000000	91.580073
932.000000	91.621142
931.000000	91.662901
930.000000	91.713124
929.000000	91.768538
928.000000	91.824635
927.000000	91.881066
926.000000	91.936263
925.000000	91.987330
924.000000	92.036983
923.000000	92.090895
922.000000	92.146404
921.000000	92.193060
920.000000	92.226138
919.000000	92.251604
918.000000	92.277524
917.000000	92.309245
916.000000	92.352252
915.000000	92.408708
914.000000	92.469954
913.000000	92.523273
912.000000	92.568556
911.000000	92.618833
910.000000	92.683325
909.000000	92.760149
908.000000	92.845963
907.000000	92.940739
906.000000	93.040726
905.000000	93.138842
904.000000	93.236406
903.000000	93.344728
902.000000	93.471276
901.000000	93.612291
900.000000	93.760345
899.000000	93.909938
898.000000	94.054199
897.000000	94.186485
896.000000	94.308490
895.000000	94.428339
894.000000	94.548344
893.000000	94.663093
892.000000	94.771596
891.000000	94.881724
890.000000	94.998842
889.000000	95.118272
888.000000	95.232805
887.000000	95.340338
886.000000	95.441094
885.000000	95.535065
884.000000	95.625988
883.000000	95.720342
882.000000	95.817400
881.000000	95.906644
880.000000	95.980455
879.000000	96.045056
878.000000	96.114736
877.000000	96.198241
876.000000	96.293523
875.000000	96.392138
874.000000	96.486426
873.000000	96.575214
872.000000	96.663260
871.000000	96.753193
870.000000	96.840625
869.000000	96.921791
868.000000	97.002671
867.000000	97.093358
866.000000	97.194491
865.000000	97.296166
864.000000	97.389891
863.000000	97.475295
862.000000	97.555666
861.000000	97.633570
860.000000	97.711349
859.000000	97.789705
858.000000	97.864739
857.000000	97.931392
856.000000	97.989826
855.000000	98.043763
854.000000	98.093674
853.000000	98.137751
852.000000	98.178678
851.000000	98.222284
850.000000	98.268859
849.000000	98.312181
848.000000	98.348236
847.000000	98.379316
846.000000	98.408620
845.000000	98.435917
844.000000	98.459143
843.000000	98.475016
842.000000	98.477914
841.000000	98.464066
840.000000	98.437931
839.000000	98.409230
838.000000	98.382191
837.000000	98.351745
836.000000	98.311102
835.000000	98.259573
834.000000	98.203452
833.000000	98.153176
832.000000	98.118422
831.000000	98.101019
830.000000	98.093623
829.000000	98.090003
828.000000	98.093322
827.000000	98.107497
826.000000	98.125696
825.000000	98.139114
824.000000	98.152825
823.000000	98.177450
822.000000	98.207520
821.000000	98.225575
820.000000	98.226960
819.000000	98.224008
818.000000	98.224689
817.000000	98.220436
816.000000	98.197042
815.000000	98.146224
814.000000	98.064205
813.000000	97.950714
812.000000	97.814233
811.000000	97.667071
810.000000	97.506802
809.000000	97.310378
808.000000	97.055330
807.000000	96.742884
806.000000	96.395788
805.000000	96.039453
804.000000	95.691328
803.000000	95.361887
802.000000	95.057003
801.000000	94.782686
800.000000	94.552621
799.000000	94.386207
798.000000	94.294795
797.000000	94.273883
796.000000	94.308619
795.000000	94.379279
794.000000	94.463066
793.000000	94.542979
792.000000	94.617709
791.000000	94.693691
790.000000	94.766210
789.000000	94.817441
788.000000	94.833847
787.000000	94.815626
786.000000	94.767766
785.000000	94.691950
784.000000	94.590223
783.000000	94.468336
782.000000	94.333761
781.000000	94.199015
780.000000	94.087026
779.000000	94.021120
778.000000	94.006529
777.000000	94.031968
776.000000	94.090190
775.000000	94.183617
774.000000	94.307567
773.000000	94.443256
772.000000	94.573321
771.000000	94.692292
770.000000	94.797036
769.000000	94.880010
768.000000	94.939510
767.000000	94.986213
766.000000	95.031116
765.000000	95.074050
764.000000	95.110363
763.000000	95.141659
762.000000	95.173732
761.000000	95.210230
760.000000	95.253285
759.000000	95.303695
758.000000	95.355961
757.000000	95.400422
756.000000	95.435478
755.000000	95.471628
754.000000	95.519191
753.000000	95.577924
752.000000	95.641787
751.000000	95.706489
750.000000	95.768207
749.000000	95.822220
748.000000	95.868956
747.000000	95.917388
746.000000	95.978000
745.000000	96.054647
744.000000	96.144179
743.000000	96.239571
742.000000	96.333507
741.000000	96.425097
740.000000	96.523188
739.000000	96.636008
738.000000	96.756772
737.000000	96.866685
736.000000	96.953403
735.000000	97.019730
734.000000	97.074359
733.000000	97.122947
732.000000	97.169593
731.000000	97.217759
730.000000	97.266086
729.000000	97.309715
728.000000	97.347508
727.000000	97.381785
726.000000	97.411377
725.000000	97.433887
724.000000	97.455648
723.000000	97.489674
722.000000	97.541052
721.000000	97.602744
720.000000	97.667755
719.000000	97.735890
718.000000	97.805521
717.000000	97.868807
716.000000	97.919758
715.000000	97.959590
714.000000	97.991791
713.000000	98.019893
712.000000	98.051051
711.000000	98.090545
710.000000	98.129197
709.000000	98.147919
708.000000	98.140706
707.000000	98.122869
706.000000	98.109908
705.000000	98.098438
704.000000	98.075417
703.000000	98.034408
702.000000	97.971995
701.000000	97.877893
700.000000	97.742278
699.000000	97.569959
698.000000	97.379597
697.000000	97.194050
696.000000	97.038942
695.000000	96.941892
694.000000	96.919004
693.000000	96.961821
692.000000	97.044167
691.000000	97.142422
690.000000	97.246286
689.000000	97.353134
688.000000	97.459165
687.000000	97.557457
686.000000	97.641734
685.000000	97.711589
684.000000	97.773875
683.000000	97.835909
682.000000	97.896892
681.000000	97.950108
680.000000	97.993689
679.000000	98.032845
678.000000	98.070662
677.000000	98.105354
676.000000	98.139057
675.000000	98.179893
674.000000	98.229821
673.000000	98.277297
672.000000	98.308505
671.000000	98.322807
670.000000	98.333964
669.000000	98.364012
668.000000	98.427631
667.000000	98.506358
666.000000	98.565090
665.000000	98.594216
664.000000	98.611183
663.000000	98.638431
662.000000	98.681322
661.000000	98.724705
660.000000	98.756288
659.000000	98.780197
658.000000	98.800241
657.000000	98.804173
656.000000	98.779292
655.000000	98.736037
654.000000	98.701428
653.000000	98.690471
652.000000	98.696710
651.000000	98.707392
650.000000	98.715063
649.000000	98.718045
648.000000	98.721930
647.000000	98.740112
646.000000	98.783157
645.000000	98.847304
644.000000	98.918805
643.000000	98.986902
642.000000	99.048523
641.000000	99.104447
640.000000	99.156100
639.000000	99.204196
638.000000	99.247379
637.000000	99.285471
636.000000	99.325553
635.000000	99.377624
634.000000	99.438303
633.000000	99.487716
632.000000	99.512372
631.000000	99.525654
630.000000	99.555594
629.000000	99.611446
628.000000	99.672503
627.000000	99.714915
626.000000	99.744071
625.000000	99.789114
624.000000	99.860855
623.000000	99.927654
622.000000	99.950209
621.000000	99.937728
620.000000	99.947124
619.000000	100.016000
618.000000	100.111673
617.000000	100.167297
616.000000	100.155772
615.000000	100.106441
614.000000	100.063395
613.000000	100.043095
612.000000	100.033663
611.000000	100.017763
610.000000	99.991069
609.000000	99.969330
608.000000	99.976372
607.000000	100.014867
606.000000	100.052222
605.000000	100.051768
604.000000	100.013560
603.000000	99.968478
602.000000	99.938988
601.000000	99.925615
600.000000	99.927778
599.000000	99.950103
598.000000	99.985509
597.000000	100.014751
596.000000	100.027057
595.000000	100.023522
594.000000	100.001528
593.000000	99.958667
592.000000	99.913090
591.000000	99.891782
590.000000	99.890552
589.000000	99.878805
588.000000	99.854658
587.000000	99.858201
586.000000	99.912153
585.000000	99.981320
584.000000	100.016261
583.000000	100.009162
582.000000	99.984372
581.000000	99.961573
580.000000	99.957566
579.000000	99.999767
578.000000	100.094856
577.000000	100.197068
576.000000	100.240499
575.000000	100.195041
574.000000	100.077966
573.000000	99.927087
572.000000	99.782529
571.000000	99.680753
570.000000	99.628287
569.000000	99.593422
568.000000	99.551422
567.000000	99.513622
566.000000	99.492935
565.000000	99.475853
564.000000	99.452298
563.000000	99.432133
562.000000	99.402988
561.000000	99.312963
560.000000	99.132524
559.000000	98.910137
558.000000	98.734305
557.000000	98.641609
556.000000	98.605979
555.000000	98.586749
554.000000	98.548514
553.000000	98.466840
552.000000	98.349106
551.000000	98.239442
550.000000	98.176375
