PE IR       SUBTECH     SPECTRUM    ASCII       PEDS        4.00        
   -1
BH1 8-1 3 15_1.asc
24/05/17
13:38:40.00
24/05/17
13:38:46.00
Administrator
?品 141 用? Administrator 日期 Friday, May 17 2024
550.000000
#HDR
-1
-1
#GR
cm-1
%T
1.0
0.0
4000.000000
-1.000000
3451
8
98.582759
93.500784
#DATA
4000.000000	98.486659
3999.000000	98.484388
3998.000000	98.483107
3997.000000	98.483048
3996.000000	98.483980
3995.000000	98.485368
3994.000000	98.486810
3993.000000	98.487993
3992.000000	98.488585
3991.000000	98.488534
3990.000000	98.488176
3989.000000	98.487828
3988.000000	98.487497
3987.000000	98.487015
3986.000000	98.486272
3985.000000	98.485259
3984.000000	98.484069
3983.000000	98.482881
3982.000000	98.481885
3981.000000	98.481159
3980.000000	98.480619
3979.000000	98.480217
3978.000000	98.480156
3977.000000	98.480721
3976.000000	98.481876
3975.000000	98.483117
3974.000000	98.483831
3973.000000	98.483796
3972.000000	98.483322
3971.000000	98.483060
3970.000000	98.483563
3969.000000	98.484859
3968.000000	98.486288
3967.000000	98.486900
3966.000000	98.486264
3965.000000	98.484739
3964.000000	98.483159
3963.000000	98.482203
3962.000000	98.481995
3961.000000	98.482247
3960.000000	98.482485
3959.000000	98.482333
3958.000000	98.481701
3957.000000	98.480732
3956.000000	98.479655
3955.000000	98.478702
3954.000000	98.478090
3953.000000	98.477904
3952.000000	98.478013
3951.000000	98.478129
3950.000000	98.477983
3949.000000	98.477464
3948.000000	98.476634
3947.000000	98.475694
3946.000000	98.474797
3945.000000	98.473953
3944.000000	98.473150
3943.000000	98.472556
3942.000000	98.472440
3941.000000	98.472853
3940.000000	98.473388
3939.000000	98.473547
3938.000000	98.473287
3937.000000	98.472957
3936.000000	98.472761
3935.000000	98.472470
3934.000000	98.471950
3933.000000	98.471516
3932.000000	98.471451
3931.000000	98.471429
3930.000000	98.470777
3929.000000	98.469369
3928.000000	98.467677
3927.000000	98.466128
3926.000000	98.464961
3925.000000	98.464619
3924.000000	98.465478
3923.000000	98.466855
3922.000000	98.467274
3921.000000	98.466331
3920.000000	98.465009
3919.000000	98.464126
3918.000000	98.463363
3917.000000	98.462309
3916.000000	98.461367
3915.000000	98.460975
3914.000000	98.460853
3913.000000	98.460693
3912.000000	98.460643
3911.000000	98.460850
3910.000000	98.461107
3909.000000	98.461079
3908.000000	98.460684
3907.000000	98.459951
3906.000000	98.458954
3905.000000	98.457847
3904.000000	98.456906
3903.000000	98.456322
3902.000000	98.456006
3901.000000	98.455777
3900.000000	98.455562
3899.000000	98.455366
3898.000000	98.455171
3897.000000	98.455007
3896.000000	98.454893
3895.000000	98.454820
3894.000000	98.454786
3893.000000	98.454799
3892.000000	98.454859
3891.000000	98.454967
3890.000000	98.455124
3889.000000	98.455323
3888.000000	98.455545
3887.000000	98.455773
3886.000000	98.456005
3885.000000	98.456251
3884.000000	98.456511
3883.000000	98.456769
3882.000000	98.457016
3881.000000	98.457263
3880.000000	98.457533
3879.000000	98.457835
3878.000000	98.458150
3877.000000	98.458449
3876.000000	98.458717
3875.000000	98.458964
3874.000000	98.459208
3873.000000	98.459456
3872.000000	98.459691
3871.000000	98.459891
3870.000000	98.460061
3869.000000	98.460227
3868.000000	98.460401
3867.000000	98.460573
3866.000000	98.460742
3865.000000	98.460930
3864.000000	98.461153
3863.000000	98.461400
3862.000000	98.461652
3861.000000	98.461904
3860.000000	98.462160
3859.000000	98.462410
3858.000000	98.462640
3857.000000	98.462845
3856.000000	98.463033
3855.000000	98.463202
3854.000000	98.463341
3853.000000	98.463452
3852.000000	98.463555
3851.000000	98.463644
3850.000000	98.463692
3849.000000	98.463692
3848.000000	98.463662
3847.000000	98.463622
3846.000000	98.463581
3845.000000	98.463535
3844.000000	98.463468
3843.000000	98.463369
3842.000000	98.463246
3841.000000	98.463117
3840.000000	98.463001
3839.000000	98.462901
3838.000000	98.462819
3837.000000	98.462764
3836.000000	98.462752
3835.000000	98.462800
3834.000000	98.462913
3833.000000	98.463084
3832.000000	98.463296
3831.000000	98.463531
3830.000000	98.463778
3829.000000	98.464038
3828.000000	98.464314
3827.000000	98.464611
3826.000000	98.464929
3825.000000	98.465275
3824.000000	98.465643
3823.000000	98.466008
3822.000000	98.466343
3821.000000	98.466647
3820.000000	98.466944
3819.000000	98.467246
3818.000000	98.467534
3817.000000	98.467803
3816.000000	98.468076
3815.000000	98.468386
3814.000000	98.468727
3813.000000	98.469070
3812.000000	98.469396
3811.000000	98.469715
3810.000000	98.470037
3809.000000	98.470355
3808.000000	98.470669
3807.000000	98.470995
3806.000000	98.471348
3805.000000	98.471726
3804.000000	98.472113
3803.000000	98.472503
3802.000000	98.472921
3801.000000	98.473401
3800.000000	98.473947
3799.000000	98.474523
3798.000000	98.475088
3797.000000	98.475636
3796.000000	98.476179
3795.000000	98.476716
3794.000000	98.477230
3793.000000	98.477697
3792.000000	98.478104
3791.000000	98.478445
3790.000000	98.478728
3789.000000	98.478968
3788.000000	98.479179
3787.000000	98.479362
3786.000000	98.479507
3785.000000	98.479616
3784.000000	98.479703
3783.000000	98.479770
3782.000000	98.479811
3781.000000	98.479829
3780.000000	98.479850
3779.000000	98.479896
3778.000000	98.479964
3777.000000	98.480035
3776.000000	98.480092
3775.000000	98.480129
3774.000000	98.480131
3773.000000	98.480077
3772.000000	98.479953
3771.000000	98.479774
3770.000000	98.479568
3769.000000	98.479356
3768.000000	98.479134
3767.000000	98.478894
3766.000000	98.478637
3765.000000	98.478370
3764.000000	98.478092
3763.000000	98.477790
3762.000000	98.477450
3761.000000	98.477072
3760.000000	98.476658
3759.000000	98.476194
3758.000000	98.475672
3757.000000	98.475101
3756.000000	98.474507
3755.000000	98.473905
3754.000000	98.473289
3753.000000	98.472648
3752.000000	98.471974
3751.000000	98.471268
3750.000000	98.470538
3749.000000	98.469813
3748.000000	98.469110
3747.000000	98.468422
3746.000000	98.467729
3745.000000	98.467022
3744.000000	98.466317
3743.000000	98.465632
3742.000000	98.464946
3741.000000	98.464223
3740.000000	98.463469
3739.000000	98.462701
3738.000000	98.461917
3737.000000	98.461094
3736.000000	98.460222
3735.000000	98.459309
3734.000000	98.458368
3733.000000	98.457408
3732.000000	98.456431
3731.000000	98.455440
3730.000000	98.454427
3729.000000	98.453380
3728.000000	98.452294
3727.000000	98.451171
3726.000000	98.450014
3725.000000	98.448822
3724.000000	98.447585
3723.000000	98.446293
3722.000000	98.444934
3721.000000	98.443499
3720.000000	98.441986
3719.000000	98.440389
3718.000000	98.438699
3717.000000	98.436909
3716.000000	98.435025
3715.000000	98.433057
3714.000000	98.431006
3713.000000	98.428868
3712.000000	98.426646
3711.000000	98.424355
3710.000000	98.422013
3709.000000	98.419632
3708.000000	98.417209
3707.000000	98.414734
3706.000000	98.412192
3705.000000	98.409571
3704.000000	98.406870
3703.000000	98.404094
3702.000000	98.401243
3701.000000	98.398318
3700.000000	98.395320
3699.000000	98.392255
3698.000000	98.389119
3697.000000	98.385909
3696.000000	98.382631
3695.000000	98.379300
3694.000000	98.375914
3693.000000	98.372469
3692.000000	98.368958
3691.000000	98.365382
3690.000000	98.361742
3689.000000	98.358053
3688.000000	98.354340
3687.000000	98.350620
3686.000000	98.346881
3685.000000	98.343096
3684.000000	98.339250
3683.000000	98.335349
3682.000000	98.331404
3681.000000	98.327424
3680.000000	98.323417
3679.000000	98.319400
3678.000000	98.315387
3677.000000	98.311384
3676.000000	98.307397
3675.000000	98.303449
3674.000000	98.299558
3673.000000	98.295709
3672.000000	98.291872
3671.000000	98.288039
3670.000000	98.284218
3669.000000	98.280409
3668.000000	98.276600
3667.000000	98.272767
3666.000000	98.268907
3665.000000	98.265035
3664.000000	98.261170
3663.000000	98.257317
3662.000000	98.253478
3661.000000	98.249658
3660.000000	98.245864
3659.000000	98.242103
3658.000000	98.238374
3657.000000	98.234674
3656.000000	98.231005
3655.000000	98.227409
3654.000000	98.223935
3653.000000	98.220460
3652.000000	98.216881
3651.000000	98.213449
3650.000000	98.210366
3649.000000	98.207218
3648.000000	98.203644
3647.000000	98.200161
3646.000000	98.197398
3645.000000	98.195131
3644.000000	98.192567
3643.000000	98.189501
3642.000000	98.186605
3641.000000	98.184428
3640.000000	98.182457
3639.000000	98.179629
3638.000000	98.176003
3637.000000	98.172572
3636.000000	98.169457
3635.000000	98.165866
3634.000000	98.162136
3633.000000	98.159757
3632.000000	98.158275
3631.000000	98.155378
3630.000000	98.149917
3629.000000	98.143995
3628.000000	98.142844
3627.000000	98.147519
3626.000000	98.150849
3625.000000	98.149586
3624.000000	98.147874
3623.000000	98.148598
3622.000000	98.149916
3621.000000	98.148913
3620.000000	98.145823
3619.000000	98.143242
3618.000000	98.143254
3617.000000	98.145230
3616.000000	98.146739
3615.000000	98.146658
3614.000000	98.146139
3613.000000	98.147098
3612.000000	98.150236
3611.000000	98.154224
3610.000000	98.157533
3609.000000	98.160541
3608.000000	98.164182
3607.000000	98.167837
3606.000000	98.169430
3605.000000	98.168041
3604.000000	98.165674
3603.000000	98.164724
3602.000000	98.165026
3601.000000	98.164598
3600.000000	98.162821
3599.000000	98.160404
3598.000000	98.158148
3597.000000	98.157090
3596.000000	98.158195
3595.000000	98.161378
3594.000000	98.165597
3593.000000	98.169517
3592.000000	98.171788
3591.000000	98.172019
3590.000000	98.171083
3589.000000	98.170497
3588.000000	98.170785
3587.000000	98.171674
3586.000000	98.172819
3585.000000	98.173155
3584.000000	98.172212
3583.000000	98.171193
3582.000000	98.171125
3581.000000	98.171571
3580.000000	98.171674
3579.000000	98.171509
3578.000000	98.171648
3577.000000	98.172220
3576.000000	98.172540
3575.000000	98.171859
3574.000000	98.170039
3573.000000	98.167504
3572.000000	98.164816
3571.000000	98.162503
3570.000000	98.161055
3569.000000	98.160774
3568.000000	98.161420
3567.000000	98.162208
3566.000000	98.162596
3565.000000	98.162438
3564.000000	98.161691
3563.000000	98.160675
3562.000000	98.159789
3561.000000	98.159053
3560.000000	98.158241
3559.000000	98.157380
3558.000000	98.156738
3557.000000	98.156469
3556.000000	98.156355
3555.000000	98.155893
3554.000000	98.154704
3553.000000	98.152877
3552.000000	98.151046
3551.000000	98.149830
3550.000000	98.149320
3549.000000	98.149271
3548.000000	98.149481
3547.000000	98.149794
3546.000000	98.149860
3545.000000	98.149369
3544.000000	98.148417
3543.000000	98.147403
3542.000000	98.146564
3541.000000	98.145786
3540.000000	98.144868
3539.000000	98.143837
3538.000000	98.142980
3537.000000	98.142557
3536.000000	98.142581
3535.000000	98.142781
3534.000000	98.142792
3533.000000	98.142422
3532.000000	98.141759
3531.000000	98.141084
3530.000000	98.140652
3529.000000	98.140635
3528.000000	98.141045
3527.000000	98.141610
3526.000000	98.141794
3525.000000	98.141258
3524.000000	98.140202
3523.000000	98.139072
3522.000000	98.138067
3521.000000	98.137104
3520.000000	98.136177
3519.000000	98.135495
3518.000000	98.135394
3517.000000	98.136108
3516.000000	98.137530
3515.000000	98.139075
3514.000000	98.139978
3513.000000	98.139832
3512.000000	98.138888
3511.000000	98.137987
3510.000000	98.137910
3509.000000	98.138703
3508.000000	98.139538
3507.000000	98.139294
3506.000000	98.137389
3505.000000	98.134241
3504.000000	98.130823
3503.000000	98.127741
3502.000000	98.125115
3501.000000	98.123195
3500.000000	98.122548
3499.000000	98.123388
3498.000000	98.124985
3497.000000	98.126041
3496.000000	98.125816
3495.000000	98.124608
3494.000000	98.123378
3493.000000	98.122967
3492.000000	98.123447
3491.000000	98.124040
3490.000000	98.123753
3489.000000	98.122355
3488.000000	98.120653
3487.000000	98.119628
3486.000000	98.119360
3485.000000	98.119120
3484.000000	98.118448
3483.000000	98.117743
3482.000000	98.117656
3481.000000	98.118237
3480.000000	98.118862
3479.000000	98.118892
3478.000000	98.118237
3477.000000	98.117338
3476.000000	98.116714
3475.000000	98.116461
3474.000000	98.116147
3473.000000	98.115283
3472.000000	98.113896
3471.000000	98.112551
3470.000000	98.111763
3469.000000	98.111500
3468.000000	98.111466
3467.000000	98.111750
3466.000000	98.112808
3465.000000	98.114684
3464.000000	98.116550
3463.000000	98.117317
3462.000000	98.116716
3461.000000	98.115449
3460.000000	98.114355
3459.000000	98.113529
3458.000000	98.112607
3457.000000	98.111617
3456.000000	98.111163
3455.000000	98.111698
3454.000000	98.112800
3453.000000	98.113346
3452.000000	98.112595
3451.000000	98.110749
3450.000000	98.108569
3449.000000	98.106678
3448.000000	98.105261
3447.000000	98.104283
3446.000000	98.103668
3445.000000	98.103282
3444.000000	98.102943
3443.000000	98.102551
3442.000000	98.102093
3441.000000	98.101529
3440.000000	98.100757
3439.000000	98.099757
3438.000000	98.098748
3437.000000	98.098080
3436.000000	98.097934
3435.000000	98.098146
3434.000000	98.098280
3433.000000	98.097959
3432.000000	98.097124
3431.000000	98.095983
3430.000000	98.094826
3429.000000	98.093868
3428.000000	98.093187
3427.000000	98.092728
3426.000000	98.092337
3425.000000	98.091852
3424.000000	98.091222
3423.000000	98.090525
3422.000000	98.089912
3421.000000	98.089495
3420.000000	98.089261
3419.000000	98.089049
3418.000000	98.088679
3417.000000	98.088126
3416.000000	98.087589
3415.000000	98.087312
3414.000000	98.087349
3413.000000	98.087528
3412.000000	98.087631
3411.000000	98.087589
3410.000000	98.087473
3409.000000	98.087380
3408.000000	98.087337
3407.000000	98.087296
3406.000000	98.087225
3405.000000	98.087191
3404.000000	98.087304
3403.000000	98.087548
3402.000000	98.087754
3401.000000	98.087796
3400.000000	98.087774
3399.000000	98.087920
3398.000000	98.088321
3397.000000	98.088769
3396.000000	98.088923
3395.000000	98.088611
3394.000000	98.088035
3393.000000	98.087707
3392.000000	98.088031
3391.000000	98.089005
3390.000000	98.090314
3389.000000	98.091649
3388.000000	98.092861
3387.000000	98.093822
3386.000000	98.094376
3385.000000	98.094550
3384.000000	98.094638
3383.000000	98.094894
3382.000000	98.095301
3381.000000	98.095728
3380.000000	98.096149
3379.000000	98.096661
3378.000000	98.097323
3377.000000	98.098031
3376.000000	98.098566
3375.000000	98.098772
3374.000000	98.098729
3373.000000	98.098782
3372.000000	98.099290
3371.000000	98.100312
3370.000000	98.101576
3369.000000	98.102718
3368.000000	98.103558
3367.000000	98.104111
3366.000000	98.104509
3365.000000	98.104971
3364.000000	98.105705
3363.000000	98.106726
3362.000000	98.107809
3361.000000	98.108722
3360.000000	98.109480
3359.000000	98.110275
3358.000000	98.111205
3357.000000	98.112173
3356.000000	98.113060
3355.000000	98.113874
3354.000000	98.114673
3353.000000	98.115438
3352.000000	98.116105
3351.000000	98.116692
3350.000000	98.117306
3349.000000	98.118023
3348.000000	98.118804
3347.000000	98.119527
3346.000000	98.120110
3345.000000	98.120596
3344.000000	98.121119
3343.000000	98.121797
3342.000000	98.122657
3341.000000	98.123600
3340.000000	98.124396
3339.000000	98.124884
3338.000000	98.125100
3337.000000	98.125259
3336.000000	98.125526
3335.000000	98.125875
3334.000000	98.126207
3333.000000	98.126486
3332.000000	98.126774
3331.000000	98.127131
3330.000000	98.127539
3329.000000	98.127913
3328.000000	98.128194
3327.000000	98.128391
3326.000000	98.128553
3325.000000	98.128726
3324.000000	98.128944
3323.000000	98.129215
3322.000000	98.129517
3321.000000	98.129791
3320.000000	98.129983
3319.000000	98.130093
3318.000000	98.130189
3317.000000	98.130378
3316.000000	98.130742
3315.000000	98.131277
3314.000000	98.131847
3313.000000	98.132246
3312.000000	98.132344
3311.000000	98.132196
3310.000000	98.132050
3309.000000	98.132193
3308.000000	98.132782
3307.000000	98.133726
3306.000000	98.134699
3305.000000	98.135361
3304.000000	98.135595
3303.000000	98.135525
3302.000000	98.135319
3301.000000	98.135022
3300.000000	98.134663
3299.000000	98.134425
3298.000000	98.134572
3297.000000	98.135194
3296.000000	98.136003
3295.000000	98.136443
3294.000000	98.136156
3293.000000	98.135378
3292.000000	98.134848
3291.000000	98.135243
3290.000000	98.136633
3289.000000	98.138426
3288.000000	98.139871
3287.000000	98.140644
3286.000000	98.141069
3285.000000	98.141910
3284.000000	98.143823
3283.000000	98.146790
3282.000000	98.149935
3281.000000	98.152034
3280.000000	98.152454
3279.000000	98.151720
3278.000000	98.151192
3277.000000	98.151891
3276.000000	98.153583
3275.000000	98.155141
3274.000000	98.155796
3273.000000	98.155817
3272.000000	98.155956
3271.000000	98.156527
3270.000000	98.157242
3269.000000	98.157713
3268.000000	98.157779
3267.000000	98.157487
3266.000000	98.157103
3265.000000	98.157072
3264.000000	98.157608
3263.000000	98.158364
3262.000000	98.158746
3261.000000	98.158516
3260.000000	98.157874
3259.000000	98.157127
3258.000000	98.156548
3257.000000	98.156469
3256.000000	98.157203
3255.000000	98.158724
3254.000000	98.160578
3253.000000	98.162190
3252.000000	98.163187
3251.000000	98.163496
3250.000000	98.163339
3249.000000	98.163177
3248.000000	98.163433
3247.000000	98.164160
3246.000000	98.165073
3245.000000	98.165924
3244.000000	98.166736
3243.000000	98.167616
3242.000000	98.168495
3241.000000	98.169186
3240.000000	98.169610
3239.000000	98.169834
3238.000000	98.169921
3237.000000	98.169903
3236.000000	98.169924
3235.000000	98.170263
3234.000000	98.171105
3233.000000	98.172369
3232.000000	98.173776
3231.000000	98.175049
3230.000000	98.176044
3229.000000	98.176740
3228.000000	98.177211
3227.000000	98.177599
3226.000000	98.178041
3225.000000	98.178616
3224.000000	98.179378
3223.000000	98.180354
3222.000000	98.181510
3221.000000	98.182706
3220.000000	98.183770
3219.000000	98.184663
3218.000000	98.185500
3217.000000	98.186439
3216.000000	98.187525
3215.000000	98.188672
3214.000000	98.189752
3213.000000	98.190689
3212.000000	98.191480
3211.000000	98.192183
3210.000000	98.192905
3209.000000	98.193743
3208.000000	98.194702
3207.000000	98.195690
3206.000000	98.196619
3205.000000	98.197510
3204.000000	98.198433
3203.000000	98.199399
3202.000000	98.200347
3201.000000	98.201243
3200.000000	98.202149
3199.000000	98.203159
3198.000000	98.204299
3197.000000	98.205513
3196.000000	98.206722
3195.000000	98.207882
3194.000000	98.208993
3193.000000	98.210077
3192.000000	98.211138
3191.000000	98.212154
3190.000000	98.213111
3189.000000	98.214029
3188.000000	98.214939
3187.000000	98.215863
3186.000000	98.216851
3185.000000	98.217986
3184.000000	98.219300
3183.000000	98.220658
3182.000000	98.221816
3181.000000	98.222669
3180.000000	98.223352
3179.000000	98.224143
3178.000000	98.225132
3177.000000	98.226204
3176.000000	98.227228
3175.000000	98.228193
3174.000000	98.229107
3173.000000	98.229943
3172.000000	98.230755
3171.000000	98.231709
3170.000000	98.232894
3169.000000	98.234170
3168.000000	98.235323
3167.000000	98.236330
3166.000000	98.237345
3165.000000	98.238427
3164.000000	98.239395
3163.000000	98.240030
3162.000000	98.240358
3161.000000	98.240707
3160.000000	98.241465
3159.000000	98.242802
3158.000000	98.244631
3157.000000	98.246719
3156.000000	98.248775
3155.000000	98.250477
3154.000000	98.251623
3153.000000	98.252308
3152.000000	98.252842
3151.000000	98.253366
3150.000000	98.253712
3149.000000	98.253802
3148.000000	98.253999
3147.000000	98.254806
3146.000000	98.256339
3145.000000	98.258329
3144.000000	98.260518
3143.000000	98.262737
3142.000000	98.264653
3141.000000	98.265898
3140.000000	98.266529
3139.000000	98.267060
3138.000000	98.267981
3137.000000	98.269362
3136.000000	98.270916
3135.000000	98.272174
3134.000000	98.272540
3133.000000	98.271603
3132.000000	98.269771
3131.000000	98.268359
3130.000000	98.268553
3129.000000	98.270409
3128.000000	98.272888
3127.000000	98.274921
3126.000000	98.276197
3125.000000	98.276892
3124.000000	98.277122
3123.000000	98.276879
3122.000000	98.276347
3121.000000	98.275997
3120.000000	98.276213
3119.000000	98.276998
3118.000000	98.278225
3117.000000	98.280008
3116.000000	98.282559
3115.000000	98.285664
3114.000000	98.288573
3113.000000	98.290628
3112.000000	98.291842
3111.000000	98.292640
3110.000000	98.293127
3109.000000	98.293002
3108.000000	98.292258
3107.000000	98.291572
3106.000000	98.291726
3105.000000	98.292781
3104.000000	98.294016
3103.000000	98.294576
3102.000000	98.294143
3101.000000	98.293096
3100.000000	98.292177
3099.000000	98.291970
3098.000000	98.292594
3097.000000	98.293756
3096.000000	98.294988
3095.000000	98.295997
3094.000000	98.296917
3093.000000	98.298133
3092.000000	98.299746
3091.000000	98.301264
3090.000000	98.302024
3089.000000	98.301963
3088.000000	98.301832
3087.000000	98.302548
3086.000000	98.304356
3085.000000	98.306732
3084.000000	98.308788
3083.000000	98.309902
3082.000000	98.310054
3081.000000	98.309799
3080.000000	98.309910
3079.000000	98.310747
3078.000000	98.312069
3077.000000	98.313395
3076.000000	98.314496
3075.000000	98.315454
3074.000000	98.316374
3073.000000	98.317237
3072.000000	98.317992
3071.000000	98.318594
3070.000000	98.319001
3069.000000	98.319339
3068.000000	98.319986
3067.000000	98.321251
3066.000000	98.322937
3065.000000	98.324524
3064.000000	98.325864
3063.000000	98.327288
3062.000000	98.328730
3061.000000	98.329287
3060.000000	98.328209
3059.000000	98.325960
3058.000000	98.323994
3057.000000	98.323324
3056.000000	98.323786
3055.000000	98.324579
3054.000000	98.325197
3053.000000	98.325679
3052.000000	98.326131
3051.000000	98.326364
3050.000000	98.326185
3049.000000	98.325896
3048.000000	98.326162
3047.000000	98.327212
3046.000000	98.328383
3045.000000	98.328781
3044.000000	98.328274
3043.000000	98.327572
3042.000000	98.327348
3041.000000	98.327607
3040.000000	98.327952
3039.000000	98.328061
3038.000000	98.327718
3037.000000	98.326750
3036.000000	98.325244
3035.000000	98.323675
3034.000000	98.322633
3033.000000	98.322464
3032.000000	98.323157
3031.000000	98.324353
3030.000000	98.325400
3029.000000	98.325650
3028.000000	98.325015
3027.000000	98.324176
3026.000000	98.324027
3025.000000	98.324748
3024.000000	98.325426
3023.000000	98.324662
3022.000000	98.321697
3021.000000	98.317141
3020.000000	98.312726
3019.000000	98.309943
3018.000000	98.308796
3017.000000	98.308036
3016.000000	98.306645
3015.000000	98.304934
3014.000000	98.303936
3013.000000	98.303871
3012.000000	98.303588
3011.000000	98.301675
3010.000000	98.297844
3009.000000	98.293083
3008.000000	98.288668
3007.000000	98.285259
3006.000000	98.282962
3005.000000	98.281907
3004.000000	98.282323
3003.000000	98.283924
3002.000000	98.285417
3001.000000	98.285025
3000.000000	98.281766
2999.000000	98.276311
2998.000000	98.270753
2997.000000	98.267233
2996.000000	98.266475
2995.000000	98.267421
2994.000000	98.268174
2993.000000	98.267539
2992.000000	98.265813
2991.000000	98.264215
2990.000000	98.263690
2989.000000	98.264162
2988.000000	98.264722
2987.000000	98.264474
2986.000000	98.263313
2985.000000	98.261890
2984.000000	98.260736
2983.000000	98.259539
2982.000000	98.257478
2981.000000	98.254145
2980.000000	98.249934
2979.000000	98.245618
2978.000000	98.241924
2977.000000	98.239519
2976.000000	98.238811
2975.000000	98.239511
2974.000000	98.240915
2973.000000	98.242922
2972.000000	98.246260
2971.000000	98.251337
2970.000000	98.257206
2969.000000	98.262081
2968.000000	98.264793
2967.000000	98.265669
2966.000000	98.266049
2965.000000	98.267081
2964.000000	98.268919
2963.000000	98.271049
2962.000000	98.273317
2961.000000	98.276172
2960.000000	98.279563
2959.000000	98.282099
2958.000000	98.282207
2957.000000	98.280092
2956.000000	98.277709
2955.000000	98.276606
2954.000000	98.276580
2953.000000	98.276822
2952.000000	98.277427
2951.000000	98.279033
2950.000000	98.281499
2949.000000	98.283724
2948.000000	98.284738
2947.000000	98.284428
2946.000000	98.283330
2945.000000	98.282189
2944.000000	98.281694
2943.000000	98.282197
2942.000000	98.283514
2941.000000	98.285128
2940.000000	98.286632
2939.000000	98.287934
2938.000000	98.289108
2937.000000	98.290197
2936.000000	98.291159
2935.000000	98.291876
2934.000000	98.292244
2933.000000	98.292292
2932.000000	98.292214
2931.000000	98.292266
2930.000000	98.292625
2929.000000	98.293315
2928.000000	98.294233
2927.000000	98.295146
2926.000000	98.295799
2925.000000	98.296103
2924.000000	98.296154
2923.000000	98.296151
2922.000000	98.296245
2921.000000	98.296502
2920.000000	98.296938
2919.000000	98.297502
2918.000000	98.298070
2917.000000	98.298524
2916.000000	98.298879
2915.000000	98.299284
2914.000000	98.299844
2913.000000	98.300492
2912.000000	98.301106
2911.000000	98.301646
2910.000000	98.302127
2909.000000	98.302587
2908.000000	98.303094
2907.000000	98.303603
2906.000000	98.303807
2905.000000	98.303384
2904.000000	98.302461
2903.000000	98.301623
2902.000000	98.301391
2901.000000	98.301864
2900.000000	98.303036
2899.000000	98.304881
2898.000000	98.307222
2897.000000	98.309719
2896.000000	98.312084
2895.000000	98.314166
2894.000000	98.315876
2893.000000	98.317207
2892.000000	98.318240
2891.000000	98.318925
2890.000000	98.319053
2889.000000	98.318742
2888.000000	98.318703
2887.000000	98.319511
2886.000000	98.320795
2885.000000	98.321647
2884.000000	98.321752
2883.000000	98.321556
2882.000000	98.321420
2881.000000	98.321203
2880.000000	98.320771
2879.000000	98.320300
2878.000000	98.319890
2877.000000	98.319433
2876.000000	98.319185
2875.000000	98.320077
2874.000000	98.323080
2873.000000	98.328320
2872.000000	98.334830
2871.000000	98.340969
2870.000000	98.345292
2869.000000	98.347481
2868.000000	98.348585
2867.000000	98.350113
2866.000000	98.352531
2865.000000	98.354772
2864.000000	98.355375
2863.000000	98.354113
2862.000000	98.352545
2861.000000	98.352929
2860.000000	98.356411
2859.000000	98.362228
2858.000000	98.368407
2857.000000	98.373454
2856.000000	98.377205
2855.000000	98.380017
2854.000000	98.381840
2853.000000	98.382553
2852.000000	98.382779
2851.000000	98.383497
2850.000000	98.384851
2849.000000	98.386103
2848.000000	98.386966
2847.000000	98.388327
2846.000000	98.391237
2845.000000	98.395543
2844.000000	98.399873
2843.000000	98.402840
2842.000000	98.404013
2841.000000	98.403883
2840.000000	98.403294
2839.000000	98.402888
2838.000000	98.402921
2837.000000	98.403501
2836.000000	98.404816
2835.000000	98.406958
2834.000000	98.409577
2833.000000	98.411980
2832.000000	98.413658
2831.000000	98.414559
2830.000000	98.414849
2829.000000	98.414708
2828.000000	98.414505
2827.000000	98.414856
2826.000000	98.416157
2825.000000	98.418191
2824.000000	98.420497
2823.000000	98.422933
2822.000000	98.425504
2821.000000	98.427835
2820.000000	98.429351
2819.000000	98.430034
2818.000000	98.430571
2817.000000	98.431599
2816.000000	98.433039
2815.000000	98.434356
2814.000000	98.435196
2813.000000	98.435535
2812.000000	98.435421
2811.000000	98.434919
2810.000000	98.434306
2809.000000	98.434055
2808.000000	98.434512
2807.000000	98.435681
2806.000000	98.437277
2805.000000	98.438886
2804.000000	98.440135
2803.000000	98.440903
2802.000000	98.441440
2801.000000	98.442079
2800.000000	98.442817
2799.000000	98.443349
2798.000000	98.443626
2797.000000	98.444118
2796.000000	98.445265
2795.000000	98.446887
2794.000000	98.448449
2793.000000	98.449815
2792.000000	98.451290
2791.000000	98.452820
2790.000000	98.453724
2789.000000	98.453549
2788.000000	98.452670
2787.000000	98.451801
2786.000000	98.451253
2785.000000	98.450991
2784.000000	98.451163
2783.000000	98.452032
2782.000000	98.453485
2781.000000	98.454933
2780.000000	98.455830
2779.000000	98.456133
2778.000000	98.456154
2777.000000	98.456191
2776.000000	98.456340
2775.000000	98.456573
2774.000000	98.456859
2773.000000	98.457212
2772.000000	98.457704
2771.000000	98.458450
2770.000000	98.459499
2769.000000	98.460712
2768.000000	98.461772
2767.000000	98.462394
2766.000000	98.462537
2765.000000	98.462431
2764.000000	98.462342
2763.000000	98.462312
2762.000000	98.462215
2761.000000	98.462077
2760.000000	98.462186
2759.000000	98.462781
2758.000000	98.463739
2757.000000	98.464693
2756.000000	98.465367
2755.000000	98.465635
2754.000000	98.465367
2753.000000	98.464560
2752.000000	98.463682
2751.000000	98.463523
2750.000000	98.464460
2749.000000	98.466028
2748.000000	98.467289
2747.000000	98.467685
2746.000000	98.467408
2745.000000	98.467159
2744.000000	98.467607
2743.000000	98.468916
2742.000000	98.470611
2741.000000	98.471988
2740.000000	98.472827
2739.000000	98.473576
2738.000000	98.474761
2737.000000	98.476318
2736.000000	98.477675
2735.000000	98.478314
2734.000000	98.478084
2733.000000	98.477188
2732.000000	98.476105
2731.000000	98.475329
2730.000000	98.474925
2729.000000	98.474449
2728.000000	98.473552
2727.000000	98.472578
2726.000000	98.472308
2725.000000	98.473174
2724.000000	98.474906
2723.000000	98.476811
2722.000000	98.478239
2721.000000	98.478890
2720.000000	98.478925
2719.000000	98.478752
2718.000000	98.478515
2717.000000	98.477901
2716.000000	98.476727
2715.000000	98.475613
2714.000000	98.475581
2713.000000	98.477003
2712.000000	98.479270
2711.000000	98.481481
2710.000000	98.483165
2709.000000	98.484120
2708.000000	98.484032
2707.000000	98.482757
2706.000000	98.480849
2705.000000	98.479365
2704.000000	98.479025
2703.000000	98.479762
2702.000000	98.481068
2701.000000	98.482488
2700.000000	98.483744
2699.000000	98.484655
2698.000000	98.485156
2697.000000	98.485342
2696.000000	98.485381
2695.000000	98.485407
2694.000000	98.485549
2693.000000	98.485959
2692.000000	98.486688
2691.000000	98.487536
2690.000000	98.488056
2689.000000	98.487741
2688.000000	98.486326
2687.000000	98.484076
2686.000000	98.481830
2685.000000	98.480486
2684.000000	98.480241
2683.000000	98.480424
2682.000000	98.480196
2681.000000	98.479486
2680.000000	98.479043
2679.000000	98.479540
2678.000000	98.480801
2677.000000	98.481901
2676.000000	98.481934
2675.000000	98.480671
2674.000000	98.478663
2673.000000	98.476861
2672.000000	98.475922
2671.000000	98.475833
2670.000000	98.476159
2669.000000	98.476606
2668.000000	98.477208
2667.000000	98.477916
2666.000000	98.478356
2665.000000	98.478188
2664.000000	98.477575
2663.000000	98.477060
2662.000000	98.476955
2661.000000	98.476986
2660.000000	98.476619
2659.000000	98.475659
2658.000000	98.474504
2657.000000	98.473773
2656.000000	98.473643
2655.000000	98.473608
2654.000000	98.472996
2653.000000	98.471722
2652.000000	98.470383
2651.000000	98.469627
2650.000000	98.469681
2649.000000	98.470514
2648.000000	98.472055
2647.000000	98.474087
2646.000000	98.476200
2645.000000	98.478045
2644.000000	98.479521
2643.000000	98.480551
2642.000000	98.480791
2641.000000	98.479887
2640.000000	98.478037
2639.000000	98.476217
2638.000000	98.475633
2637.000000	98.476802
2636.000000	98.479123
2635.000000	98.481321
2634.000000	98.482541
2633.000000	98.482904
2632.000000	98.482955
2631.000000	98.482820
2630.000000	98.482306
2629.000000	98.481637
2628.000000	98.481479
2627.000000	98.482058
2626.000000	98.482736
2625.000000	98.482779
2624.000000	98.482214
2623.000000	98.481611
2622.000000	98.481241
2621.000000	98.480813
2620.000000	98.479982
2619.000000	98.478766
2618.000000	98.477478
2617.000000	98.476450
2616.000000	98.475885
2615.000000	98.475875
2614.000000	98.476476
2613.000000	98.477712
2612.000000	98.479430
2611.000000	98.481115
2610.000000	98.482046
2609.000000	98.481818
2608.000000	98.480620
2607.000000	98.479126
2606.000000	98.478058
2605.000000	98.477742
2604.000000	98.477969
2603.000000	98.478144
2602.000000	98.477817
2601.000000	98.477175
2600.000000	98.476858
2599.000000	98.477199
2598.000000	98.477865
2597.000000	98.478338
2596.000000	98.478492
2595.000000	98.478449
2594.000000	98.478158
2593.000000	98.477550
2592.000000	98.476942
2591.000000	98.476817
2590.000000	98.477171
2589.000000	98.477474
2588.000000	98.477389
2587.000000	98.477168
2586.000000	98.477152
2585.000000	98.477160
2584.000000	98.476673
2583.000000	98.475485
2582.000000	98.473947
2581.000000	98.472651
2580.000000	98.471986
2579.000000	98.471970
2578.000000	98.472298
2577.000000	98.472537
2576.000000	98.472356
2575.000000	98.471610
2574.000000	98.470335
2573.000000	98.468774
2572.000000	98.467376
2571.000000	98.466597
2570.000000	98.466695
2569.000000	98.467759
2568.000000	98.469737
2567.000000	98.472179
2566.000000	98.474136
2565.000000	98.474851
2564.000000	98.474517
2563.000000	98.473965
2562.000000	98.473504
2561.000000	98.472494
2560.000000	98.470377
2559.000000	98.467653
2558.000000	98.465566
2557.000000	98.464956
2556.000000	98.465751
2555.000000	98.467278
2554.000000	98.468765
2553.000000	98.469690
2552.000000	98.469916
2551.000000	98.469609
2550.000000	98.468959
2549.000000	98.468005
2548.000000	98.466827
2547.000000	98.465773
2546.000000	98.465266
2545.000000	98.465411
2544.000000	98.465954
2543.000000	98.466651
2542.000000	98.467463
2541.000000	98.468341
2540.000000	98.469014
2539.000000	98.469240
2538.000000	98.469209
2537.000000	98.469483
2536.000000	98.470398
2535.000000	98.471621
2534.000000	98.472435
2533.000000	98.472490
2532.000000	98.472100
2531.000000	98.471798
2530.000000	98.471775
2529.000000	98.471871
2528.000000	98.471950
2527.000000	98.472051
2526.000000	98.472244
2525.000000	98.472530
2524.000000	98.472863
2523.000000	98.473152
2522.000000	98.473251
2521.000000	98.473098
2520.000000	98.472817
2519.000000	98.472649
2518.000000	98.472740
2517.000000	98.473010
2516.000000	98.473270
2515.000000	98.473438
2514.000000	98.473588
2513.000000	98.473791
2512.000000	98.474006
2511.000000	98.474115
2510.000000	98.474049
2509.000000	98.473856
2508.000000	98.473645
2507.000000	98.473512
2506.000000	98.473532
2505.000000	98.473746
2504.000000	98.474106
2503.000000	98.474444
2502.000000	98.474595
2501.000000	98.474550
2500.000000	98.474460
2499.000000	98.474460
2498.000000	98.474524
2497.000000	98.474527
2496.000000	98.474365
2495.000000	98.473986
2494.000000	98.473397
2493.000000	98.472797
2492.000000	98.472578
2491.000000	98.473000
2490.000000	98.473861
2489.000000	98.474618
2488.000000	98.474877
2487.000000	98.474666
2486.000000	98.474273
2485.000000	98.473982
2484.000000	98.473993
2483.000000	98.474446
2482.000000	98.475335
2481.000000	98.476401
2480.000000	98.477221
2479.000000	98.477472
2478.000000	98.477138
2477.000000	98.476462
2476.000000	98.475703
2475.000000	98.474974
2474.000000	98.474300
2473.000000	98.473735
2472.000000	98.473382
2471.000000	98.473299
2470.000000	98.473489
2469.000000	98.473980
2468.000000	98.474780
2467.000000	98.475713
2466.000000	98.476423
2465.000000	98.476687
2464.000000	98.476613
2463.000000	98.476489
2462.000000	98.476482
2461.000000	98.476561
2460.000000	98.476668
2459.000000	98.476814
2458.000000	98.476999
2457.000000	98.477147
2456.000000	98.477188
2455.000000	98.477158
2454.000000	98.477141
2453.000000	98.477151
2452.000000	98.477130
2451.000000	98.477065
2450.000000	98.477051
2449.000000	98.477201
2448.000000	98.477516
2447.000000	98.477826
2446.000000	98.477932
2445.000000	98.477805
2444.000000	98.477571
2443.000000	98.477383
2442.000000	98.477295
2441.000000	98.477313
2440.000000	98.477471
2439.000000	98.477780
2438.000000	98.478166
2437.000000	98.478489
2436.000000	98.478672
2435.000000	98.478738
2434.000000	98.478771
2433.000000	98.478848
2432.000000	98.478994
2431.000000	98.479187
2430.000000	98.479377
2429.000000	98.479533
2428.000000	98.479669
2427.000000	98.479823
2426.000000	98.479998
2425.000000	98.480151
2424.000000	98.480269
2423.000000	98.480423
2422.000000	98.480660
2421.000000	98.480877
2420.000000	98.480902
2419.000000	98.480750
2418.000000	98.480705
2417.000000	98.481056
2416.000000	98.481836
2415.000000	98.482805
2414.000000	98.483637
2413.000000	98.484161
2412.000000	98.484425
2411.000000	98.484619
2410.000000	98.484892
2409.000000	98.485204
2408.000000	98.485383
2407.000000	98.485313
2406.000000	98.485084
2405.000000	98.484977
2404.000000	98.485252
2403.000000	98.485940
2402.000000	98.486767
2401.000000	98.487349
2400.000000	98.487502
2399.000000	98.487302
2398.000000	98.486948
2397.000000	98.486607
2396.000000	98.486418
2395.000000	98.486507
2394.000000	98.486893
2393.000000	98.487418
2392.000000	98.487844
2391.000000	98.488006
2390.000000	98.487886
2389.000000	98.487590
2388.000000	98.487321
2387.000000	98.487287
2386.000000	98.487522
2385.000000	98.487832
2384.000000	98.487941
2383.000000	98.487715
2382.000000	98.487200
2381.000000	98.486506
2380.000000	98.485740
2379.000000	98.485033
2378.000000	98.484497
2377.000000	98.484082
2376.000000	98.483551
2375.000000	98.482734
2374.000000	98.481776
2373.000000	98.481050
2372.000000	98.480758
2371.000000	98.480725
2370.000000	98.480573
2369.000000	98.480109
2368.000000	98.479451
2367.000000	98.478815
2366.000000	98.478278
2365.000000	98.477728
2364.000000	98.476971
2363.000000	98.475926
2362.000000	98.474785
2361.000000	98.473900
2360.000000	98.473494
2359.000000	98.473481
2358.000000	98.473511
2357.000000	98.473331
2356.000000	98.472901
2355.000000	98.472303
2354.000000	98.471573
2353.000000	98.470600
2352.000000	98.469287
2351.000000	98.467647
2350.000000	98.466134
2349.000000	98.465457
2348.000000	98.465975
2347.000000	98.467331
2346.000000	98.468392
2345.000000	98.468449
2344.000000	98.467749
2343.000000	98.466981
2342.000000	98.466357
2341.000000	98.465577
2340.000000	98.464848
2339.000000	98.464678
2338.000000	98.465174
2337.000000	98.465836
2336.000000	98.466409
2335.000000	98.467169
2334.000000	98.468359
2333.000000	98.469571
2332.000000	98.470231
2331.000000	98.470071
2330.000000	98.469398
2329.000000	98.468751
2328.000000	98.468502
2327.000000	98.468899
2326.000000	98.469688
2325.000000	98.470583
2324.000000	98.471291
2323.000000	98.471942
2322.000000	98.472964
2321.000000	98.474622
2320.000000	98.476744
2319.000000	98.478424
2318.000000	98.478924
2317.000000	98.478265
2316.000000	98.477399
2315.000000	98.477143
2314.000000	98.477544
2313.000000	98.478148
2312.000000	98.478575
2311.000000	98.478700
2310.000000	98.478577
2309.000000	98.478784
2308.000000	98.480120
2307.000000	98.482721
2306.000000	98.485296
2305.000000	98.486310
2304.000000	98.485578
2303.000000	98.484147
2302.000000	98.482943
2301.000000	98.482059
2300.000000	98.481278
2299.000000	98.480604
2298.000000	98.479998
2297.000000	98.479373
2296.000000	98.478895
2295.000000	98.478947
2294.000000	98.479427
2293.000000	98.479719
2292.000000	98.479309
2291.000000	98.478349
2290.000000	98.477270
2289.000000	98.476316
2288.000000	98.475495
2287.000000	98.474829
2286.000000	98.474372
2285.000000	98.474109
2284.000000	98.473920
2283.000000	98.473570
2282.000000	98.472843
2281.000000	98.471848
2280.000000	98.471095
2279.000000	98.470991
2278.000000	98.471355
2277.000000	98.471612
2276.000000	98.471443
2275.000000	98.470941
2274.000000	98.470268
2273.000000	98.469458
2272.000000	98.468595
2271.000000	98.467889
2270.000000	98.467430
2269.000000	98.467071
2268.000000	98.466588
2267.000000	98.465838
2266.000000	98.464818
2265.000000	98.463734
2264.000000	98.462885
2263.000000	98.462375
2262.000000	98.462050
2261.000000	98.461714
2260.000000	98.461339
2259.000000	98.460980
2258.000000	98.460557
2257.000000	98.459918
2256.000000	98.459125
2255.000000	98.458472
2254.000000	98.458088
2253.000000	98.457750
2252.000000	98.457201
2251.000000	98.456508
2250.000000	98.455929
2249.000000	98.455608
2248.000000	98.455587
2247.000000	98.455915
2246.000000	98.456471
2245.000000	98.456842
2244.000000	98.456674
2243.000000	98.456056
2242.000000	98.455377
2241.000000	98.454819
2240.000000	98.454235
2239.000000	98.453520
2238.000000	98.452831
2237.000000	98.452367
2236.000000	98.452158
2235.000000	98.452139
2234.000000	98.452267
2233.000000	98.452464
2232.000000	98.452578
2231.000000	98.452476
2230.000000	98.452169
2229.000000	98.451846
2228.000000	98.451820
2227.000000	98.452305
2226.000000	98.453142
2225.000000	98.453759
2224.000000	98.453607
2223.000000	98.452585
2222.000000	98.451017
2221.000000	98.449398
2220.000000	98.448221
2219.000000	98.447900
2218.000000	98.448584
2217.000000	98.449928
2216.000000	98.451255
2215.000000	98.452133
2214.000000	98.452638
2213.000000	98.453044
2212.000000	98.453434
2211.000000	98.453672
2210.000000	98.453660
2209.000000	98.453480
2208.000000	98.453301
2207.000000	98.453218
2206.000000	98.453173
2205.000000	98.453012
2204.000000	98.452622
2203.000000	98.452027
2202.000000	98.451381
2201.000000	98.450912
2200.000000	98.450835
2199.000000	98.451257
2198.000000	98.452091
2197.000000	98.453069
2196.000000	98.453894
2195.000000	98.454384
2194.000000	98.454454
2193.000000	98.454097
2192.000000	98.453454
2191.000000	98.452878
2190.000000	98.452724
2189.000000	98.453055
2188.000000	98.453622
2187.000000	98.454176
2186.000000	98.454746
2185.000000	98.455496
2184.000000	98.456366
2183.000000	98.456990
2182.000000	98.457063
2181.000000	98.456650
2180.000000	98.456173
2179.000000	98.456026
2178.000000	98.456247
2177.000000	98.456592
2176.000000	98.456827
2175.000000	98.456969
2174.000000	98.457213
2173.000000	98.457653
2172.000000	98.458130
2171.000000	98.458392
2170.000000	98.458403
2169.000000	98.458403
2168.000000	98.458635
2167.000000	98.459075
2166.000000	98.459523
2165.000000	98.459871
2164.000000	98.460147
2163.000000	98.460348
2162.000000	98.460428
2161.000000	98.460449
2160.000000	98.460524
2159.000000	98.460581
2158.000000	98.460450
2157.000000	98.460217
2156.000000	98.460172
2155.000000	98.460343
2154.000000	98.460450
2153.000000	98.460491
2152.000000	98.460934
2151.000000	98.461959
2150.000000	98.462887
2149.000000	98.462878
2148.000000	98.461914
2147.000000	98.460717
2146.000000	98.459896
2145.000000	98.459573
2144.000000	98.459739
2143.000000	98.460305
2142.000000	98.460824
2141.000000	98.460773
2140.000000	98.460224
2139.000000	98.459743
2138.000000	98.459624
2137.000000	98.459821
2136.000000	98.460592
2135.000000	98.462393
2134.000000	98.465009
2133.000000	98.467431
2132.000000	98.468937
2131.000000	98.469716
2130.000000	98.470146
2129.000000	98.470078
2128.000000	98.469270
2127.000000	98.468159
2126.000000	98.467644
2125.000000	98.468158
2124.000000	98.469342
2123.000000	98.470514
2122.000000	98.471260
2121.000000	98.471622
2120.000000	98.471890
2119.000000	98.472304
2118.000000	98.472893
2117.000000	98.473568
2116.000000	98.474278
2115.000000	98.474932
2114.000000	98.475302
2113.000000	98.475274
2112.000000	98.475170
2111.000000	98.475512
2110.000000	98.476403
2109.000000	98.477390
2108.000000	98.478000
2107.000000	98.478203
2106.000000	98.478304
2105.000000	98.478629
2104.000000	98.479401
2103.000000	98.480689
2102.000000	98.482319
2101.000000	98.483942
2100.000000	98.485245
2099.000000	98.485976
2098.000000	98.485946
2097.000000	98.485229
2096.000000	98.484272
2095.000000	98.483526
2094.000000	98.483023
2093.000000	98.482588
2092.000000	98.482313
2091.000000	98.482503
2090.000000	98.483174
2089.000000	98.483935
2088.000000	98.484443
2087.000000	98.484720
2086.000000	98.484892
2085.000000	98.484907
2084.000000	98.484668
2083.000000	98.484278
2082.000000	98.483992
2081.000000	98.483999
2080.000000	98.484341
2079.000000	98.484883
2078.000000	98.485293
2077.000000	98.485246
2076.000000	98.484758
2075.000000	98.484235
2074.000000	98.484050
2073.000000	98.484188
2072.000000	98.484304
2071.000000	98.484113
2070.000000	98.483645
2069.000000	98.483161
2068.000000	98.482896
2067.000000	98.482864
2066.000000	98.482880
2065.000000	98.482758
2064.000000	98.482463
2063.000000	98.482013
2062.000000	98.481367
2061.000000	98.480545
2060.000000	98.479820
2059.000000	98.479545
2058.000000	98.479793
2057.000000	98.480291
2056.000000	98.480694
2055.000000	98.480825
2054.000000	98.480629
2053.000000	98.480157
2052.000000	98.479624
2051.000000	98.479323
2050.000000	98.479344
2049.000000	98.479459
2048.000000	98.479289
2047.000000	98.478614
2046.000000	98.477490
2045.000000	98.476188
2044.000000	98.474992
2043.000000	98.473947
2042.000000	98.472882
2041.000000	98.471810
2040.000000	98.471115
2039.000000	98.471068
2038.000000	98.471246
2037.000000	98.470859
2036.000000	98.469657
2035.000000	98.468183
2034.000000	98.467073
2033.000000	98.466400
2032.000000	98.465914
2031.000000	98.465575
2030.000000	98.465533
2029.000000	98.465781
2028.000000	98.465985
2027.000000	98.465728
2026.000000	98.464768
2025.000000	98.463265
2024.000000	98.461678
2023.000000	98.460310
2022.000000	98.459036
2021.000000	98.457633
2020.000000	98.456235
2019.000000	98.455146
2018.000000	98.454280
2017.000000	98.453202
2016.000000	98.451821
2015.000000	98.450617
2014.000000	98.449942
2013.000000	98.449548
2012.000000	98.448941
2011.000000	98.447996
2010.000000	98.446959
2009.000000	98.446053
2008.000000	98.445308
2007.000000	98.444656
2006.000000	98.443973
2005.000000	98.443154
2004.000000	98.442199
2003.000000	98.441205
2002.000000	98.440227
2001.000000	98.439226
2000.000000	98.438313
1999.000000	98.437634
1998.000000	98.437043
1997.000000	98.436154
1996.000000	98.434809
1995.000000	98.433370
1994.000000	98.432393
1993.000000	98.432051
1992.000000	98.432053
1991.000000	98.432013
1990.000000	98.431773
1989.000000	98.431319
1988.000000	98.430649
1987.000000	98.429834
1986.000000	98.429051
1985.000000	98.428431
1984.000000	98.427926
1983.000000	98.427360
1982.000000	98.426650
1981.000000	98.425936
1980.000000	98.425492
1979.000000	98.425371
1978.000000	98.425342
1977.000000	98.425169
1976.000000	98.424867
1975.000000	98.424578
1974.000000	98.424327
1973.000000	98.424014
1972.000000	98.423614
1971.000000	98.423240
1970.000000	98.422993
1969.000000	98.422806
1968.000000	98.422493
1967.000000	98.421961
1966.000000	98.421321
1965.000000	98.420788
1964.000000	98.420452
1963.000000	98.420253
1962.000000	98.420088
1961.000000	98.419920
1960.000000	98.419742
1959.000000	98.419496
1958.000000	98.419128
1957.000000	98.418684
1956.000000	98.418278
1955.000000	98.417938
1954.000000	98.417559
1953.000000	98.417067
1952.000000	98.416463
1951.000000	98.415831
1950.000000	98.415278
1949.000000	98.414839
1948.000000	98.414489
1947.000000	98.414118
1946.000000	98.413568
1945.000000	98.412835
1944.000000	98.412150
1943.000000	98.411720
1942.000000	98.411392
1941.000000	98.410840
1940.000000	98.410001
1939.000000	98.409145
1938.000000	98.408560
1937.000000	98.408300
1936.000000	98.408162
1935.000000	98.407861
1934.000000	98.407236
1933.000000	98.406404
1932.000000	98.405560
1931.000000	98.404928
1930.000000	98.404495
1929.000000	98.403970
1928.000000	98.403372
1927.000000	98.402698
1926.000000	98.401851
1925.000000	98.400473
1924.000000	98.398679
1923.000000	98.397301
1922.000000	98.396721
1921.000000	98.396328
1920.000000	98.395471
1919.000000	98.394210
1918.000000	98.392882
1917.000000	98.391294
1916.000000	98.389376
1915.000000	98.387555
1914.000000	98.386242
1913.000000	98.385375
1912.000000	98.384529
1911.000000	98.383616
1910.000000	98.382732
1909.000000	98.381774
1908.000000	98.380810
1907.000000	98.379735
1906.000000	98.378506
1905.000000	98.376784
1904.000000	98.374743
1903.000000	98.373500
1902.000000	98.373288
1901.000000	98.372964
1900.000000	98.371968
1899.000000	98.370739
1898.000000	98.369723
1897.000000	98.368260
1896.000000	98.365904
1895.000000	98.363779
1894.000000	98.362922
1893.000000	98.362765
1892.000000	98.362381
1891.000000	98.361856
1890.000000	98.361261
1889.000000	98.359786
1888.000000	98.357451
1887.000000	98.355622
1886.000000	98.354990
1885.000000	98.354932
1884.000000	98.354868
1883.000000	98.355222
1882.000000	98.355686
1881.000000	98.355052
1880.000000	98.353656
1879.000000	98.352977
1878.000000	98.353314
1877.000000	98.353258
1876.000000	98.351828
1875.000000	98.350570
1874.000000	98.351324
1873.000000	98.353104
1872.000000	98.353673
1871.000000	98.352877
1870.000000	98.352135
1869.000000	98.351243
1868.000000	98.349176
1867.000000	98.347377
1866.000000	98.347484
1865.000000	98.348914
1864.000000	98.350680
1863.000000	98.352997
1862.000000	98.356006
1861.000000	98.358397
1860.000000	98.359270
1859.000000	98.359936
1858.000000	98.362084
1857.000000	98.365336
1856.000000	98.368196
1855.000000	98.370103
1854.000000	98.371070
1853.000000	98.370449
1852.000000	98.369261
1851.000000	98.368956
1850.000000	98.370061
1849.000000	98.371882
1848.000000	98.373397
1847.000000	98.374343
1846.000000	98.374876
1845.000000	98.375090
1844.000000	98.374929
1843.000000	98.375070
1842.000000	98.375795
1841.000000	98.376062
1840.000000	98.375518
1839.000000	98.374704
1838.000000	98.374600
1837.000000	98.375376
1836.000000	98.376855
1835.000000	98.378860
1834.000000	98.380624
1833.000000	98.381409
1832.000000	98.381608
1831.000000	98.381570
1830.000000	98.381010
1829.000000	98.379629
1828.000000	98.378021
1827.000000	98.377043
1826.000000	98.377150
1825.000000	98.377966
1824.000000	98.378458
1823.000000	98.378456
1822.000000	98.378477
1821.000000	98.378645
1820.000000	98.378486
1819.000000	98.377737
1818.000000	98.376959
1817.000000	98.376403
1816.000000	98.375805
1815.000000	98.375350
1814.000000	98.375445
1813.000000	98.376128
1812.000000	98.376672
1811.000000	98.376790
1810.000000	98.377080
1809.000000	98.377690
1808.000000	98.378180
1807.000000	98.378328
1806.000000	98.378139
1805.000000	98.377499
1804.000000	98.376478
1803.000000	98.375802
1802.000000	98.375963
1801.000000	98.376734
1800.000000	98.377195
1799.000000	98.377227
1798.000000	98.377536
1797.000000	98.378283
1796.000000	98.378932
1795.000000	98.379127
1794.000000	98.378987
1793.000000	98.378893
1792.000000	98.378804
1791.000000	98.378835
1790.000000	98.379322
1789.000000	98.380082
1788.000000	98.380834
1787.000000	98.381685
1786.000000	98.382747
1785.000000	98.383673
1784.000000	98.384200
1783.000000	98.384724
1782.000000	98.385247
1781.000000	98.385909
1780.000000	98.386735
1779.000000	98.387923
1778.000000	98.389670
1777.000000	98.391702
1776.000000	98.393658
1775.000000	98.394929
1774.000000	98.395162
1773.000000	98.394723
1772.000000	98.394111
1771.000000	98.393704
1770.000000	98.394156
1769.000000	98.395455
1768.000000	98.397052
1767.000000	98.398543
1766.000000	98.399845
1765.000000	98.401020
1764.000000	98.401826
1763.000000	98.402303
1762.000000	98.402693
1761.000000	98.403505
1760.000000	98.404419
1759.000000	98.405199
1758.000000	98.406161
1757.000000	98.408013
1756.000000	98.410729
1755.000000	98.413021
1754.000000	98.414409
1753.000000	98.415851
1752.000000	98.418271
1751.000000	98.420515
1750.000000	98.421510
1749.000000	98.421742
1748.000000	98.422274
1747.000000	98.423149
1746.000000	98.423822
1745.000000	98.424724
1744.000000	98.425774
1743.000000	98.426334
1742.000000	98.426557
1741.000000	98.427446
1740.000000	98.429137
1739.000000	98.430921
1738.000000	98.432195
1737.000000	98.432717
1736.000000	98.432649
1735.000000	98.432596
1734.000000	98.432161
1733.000000	98.431629
1732.000000	98.432457
1731.000000	98.433767
1730.000000	98.434470
1729.000000	98.434530
1728.000000	98.434720
1727.000000	98.435283
1726.000000	98.435726
1725.000000	98.435956
1724.000000	98.435799
1723.000000	98.435726
1722.000000	98.436343
1721.000000	98.437317
1720.000000	98.438054
1719.000000	98.438718
1718.000000	98.439651
1717.000000	98.439511
1716.000000	98.437616
1715.000000	98.435374
1714.000000	98.433959
1713.000000	98.433115
1712.000000	98.432431
1711.000000	98.432156
1710.000000	98.432376
1709.000000	98.432561
1708.000000	98.432225
1707.000000	98.431510
1706.000000	98.431092
1705.000000	98.431012
1704.000000	98.430888
1703.000000	98.430578
1702.000000	98.430387
1701.000000	98.430631
1700.000000	98.430796
1699.000000	98.430611
1698.000000	98.430368
1697.000000	98.429911
1696.000000	98.429280
1695.000000	98.428799
1694.000000	98.428679
1693.000000	98.428695
1692.000000	98.428659
1691.000000	98.428673
1690.000000	98.428754
1689.000000	98.428782
1688.000000	98.428734
1687.000000	98.428621
1686.000000	98.428562
1685.000000	98.428613
1684.000000	98.428653
1683.000000	98.428633
1682.000000	98.428628
1681.000000	98.428639
1680.000000	98.428704
1679.000000	98.428822
1678.000000	98.428953
1677.000000	98.429082
1676.000000	98.429218
1675.000000	98.429377
1674.000000	98.429568
1673.000000	98.429827
1672.000000	98.430158
1671.000000	98.430550
1670.000000	98.430946
1669.000000	98.431311
1668.000000	98.431727
1667.000000	98.432243
1666.000000	98.432785
1665.000000	98.433281
1664.000000	98.433749
1663.000000	98.434294
1662.000000	98.434881
1661.000000	98.435439
1660.000000	98.435974
1659.000000	98.436428
1658.000000	98.436695
1657.000000	98.436850
1656.000000	98.437085
1655.000000	98.437660
1654.000000	98.438936
1653.000000	98.440185
1652.000000	98.440937
1651.000000	98.442176
1650.000000	98.443332
1649.000000	98.444269
1648.000000	98.445259
1647.000000	98.446288
1646.000000	98.447169
1645.000000	98.448093
1644.000000	98.449137
1643.000000	98.450255
1642.000000	98.451360
1641.000000	98.452466
1640.000000	98.453653
1639.000000	98.454854
1638.000000	98.456072
1637.000000	98.457339
1636.000000	98.458569
1635.000000	98.459274
1634.000000	98.460032
1633.000000	98.461297
1632.000000	98.462791
1631.000000	98.464413
1630.000000	98.465912
1629.000000	98.467001
1628.000000	98.467840
1627.000000	98.468913
1626.000000	98.470019
1625.000000	98.470871
1624.000000	98.471633
1623.000000	98.472568
1622.000000	98.473328
1621.000000	98.474004
1620.000000	98.474976
1619.000000	98.476209
1618.000000	98.477533
1617.000000	98.478304
1616.000000	98.478770
1615.000000	98.479663
1614.000000	98.480153
1613.000000	98.479691
1612.000000	98.479810
1611.000000	98.481784
1610.000000	98.484179
1609.000000	98.485275
1608.000000	98.485648
1607.000000	98.486558
1606.000000	98.487271
1605.000000	98.487309
1604.000000	98.487187
1603.000000	98.486622
1602.000000	98.485320
1601.000000	98.484533
1600.000000	98.485735
1599.000000	98.488136
1598.000000	98.489281
1597.000000	98.488204
1596.000000	98.486115
1595.000000	98.484448
1594.000000	98.483055
1593.000000	98.481370
1592.000000	98.479824
1591.000000	98.479120
1590.000000	98.479038
1589.000000	98.478906
1588.000000	98.478531
1587.000000	98.477989
1586.000000	98.477080
1585.000000	98.475600
1584.000000	98.474172
1583.000000	98.472906
1582.000000	98.471413
1581.000000	98.469746
1580.000000	98.468309
1579.000000	98.466779
1578.000000	98.464732
1577.000000	98.462494
1576.000000	98.460789
1575.000000	98.459774
1574.000000	98.458767
1573.000000	98.457273
1572.000000	98.455481
1571.000000	98.453804
1570.000000	98.452269
1569.000000	98.450677
1568.000000	98.449182
1567.000000	98.447714
1566.000000	98.446131
1565.000000	98.444474
1564.000000	98.442868
1563.000000	98.441225
1562.000000	98.439407
1561.000000	98.437507
1560.000000	98.435967
1559.000000	98.434820
1558.000000	98.433608
1557.000000	98.432321
1556.000000	98.430962
1555.000000	98.429560
1554.000000	98.428169
1553.000000	98.426834
1552.000000	98.425519
1551.000000	98.424126
1550.000000	98.422645
1549.000000	98.421086
1548.000000	98.419523
1547.000000	98.418004
1546.000000	98.416574
1545.000000	98.415258
1544.000000	98.414013
1543.000000	98.412733
1542.000000	98.411496
1541.000000	98.410329
1540.000000	98.408962
1539.000000	98.407385
1538.000000	98.406167
1537.000000	98.405224
1536.000000	98.404181
1535.000000	98.403176
1534.000000	98.402346
1533.000000	98.401462
1532.000000	98.400244
1531.000000	98.398925
1530.000000	98.397760
1529.000000	98.396687
1528.000000	98.395642
1527.000000	98.394959
1526.000000	98.394729
1525.000000	98.394459
1524.000000	98.393444
1523.000000	98.391983
1522.000000	98.391201
1521.000000	98.390638
1520.000000	98.389098
1519.000000	98.386543
1518.000000	98.383663
1517.000000	98.381902
1516.000000	98.381323
1515.000000	98.381314
1514.000000	98.381423
1513.000000	98.381734
1512.000000	98.381720
1511.000000	98.381229
1510.000000	98.380843
1509.000000	98.381530
1508.000000	98.384013
1507.000000	98.387008
1506.000000	98.387909
1505.000000	98.387996
1504.000000	98.388018
1503.000000	98.387317
1502.000000	98.386689
1501.000000	98.386893
1500.000000	98.387628
1499.000000	98.387999
1498.000000	98.388341
1497.000000	98.389133
1496.000000	98.389427
1495.000000	98.389186
1494.000000	98.389088
1493.000000	98.389277
1492.000000	98.389795
1491.000000	98.391086
1490.000000	98.393125
1489.000000	98.394839
1488.000000	98.395422
1487.000000	98.395640
1486.000000	98.396201
1485.000000	98.396634
1484.000000	98.396850
1483.000000	98.397049
1482.000000	98.397594
1481.000000	98.398345
1480.000000	98.398882
1479.000000	98.399198
1478.000000	98.399697
1477.000000	98.400577
1476.000000	98.401585
1475.000000	98.402654
1474.000000	98.403775
1473.000000	98.404796
1472.000000	98.405379
1471.000000	98.405658
1470.000000	98.405956
1469.000000	98.406251
1468.000000	98.406432
1467.000000	98.406625
1466.000000	98.407036
1465.000000	98.407710
1464.000000	98.408425
1463.000000	98.408959
1462.000000	98.409423
1461.000000	98.409949
1460.000000	98.410576
1459.000000	98.411241
1458.000000	98.411935
1457.000000	98.412561
1456.000000	98.413007
1455.000000	98.413379
1454.000000	98.413739
1453.000000	98.414206
1452.000000	98.414789
1451.000000	98.415359
1450.000000	98.415840
1449.000000	98.416283
1448.000000	98.416696
1447.000000	98.417061
1446.000000	98.417329
1445.000000	98.417624
1444.000000	98.418006
1443.000000	98.418412
1442.000000	98.418851
1441.000000	98.419383
1440.000000	98.420001
1439.000000	98.420644
1438.000000	98.421421
1437.000000	98.422345
1436.000000	98.423206
1435.000000	98.423872
1434.000000	98.424444
1433.000000	98.425026
1432.000000	98.425661
1431.000000	98.426326
1430.000000	98.427012
1429.000000	98.427719
1428.000000	98.428430
1427.000000	98.429138
1426.000000	98.429847
1425.000000	98.430587
1424.000000	98.431361
1423.000000	98.432124
1422.000000	98.432847
1421.000000	98.433553
1420.000000	98.434288
1419.000000	98.435042
1418.000000	98.435784
1417.000000	98.436529
1416.000000	98.437276
1415.000000	98.438002
1414.000000	98.438707
1413.000000	98.439433
1412.000000	98.440203
1411.000000	98.440985
1410.000000	98.441775
1409.000000	98.442616
1408.000000	98.443512
1407.000000	98.444446
1406.000000	98.445391
1405.000000	98.446350
1404.000000	98.447317
1403.000000	98.448276
1402.000000	98.449236
1401.000000	98.450212
1400.000000	98.451211
1399.000000	98.452235
1398.000000	98.453261
1397.000000	98.454252
1396.000000	98.455178
1395.000000	98.456063
1394.000000	98.456989
1393.000000	98.458104
1392.000000	98.459363
1391.000000	98.460477
1390.000000	98.461270
1389.000000	98.461833
1388.000000	98.462355
1387.000000	98.462915
1386.000000	98.463536
1385.000000	98.464327
1384.000000	98.465317
1383.000000	98.466331
1382.000000	98.467313
1381.000000	98.468317
1380.000000	98.469381
1379.000000	98.470339
1378.000000	98.470935
1377.000000	98.471160
1376.000000	98.471419
1375.000000	98.472171
1374.000000	98.473362
1373.000000	98.474648
1372.000000	98.475813
1371.000000	98.476978
1370.000000	98.478108
1369.000000	98.478963
1368.000000	98.479151
1367.000000	98.478545
1366.000000	98.477760
1365.000000	98.477768
1364.000000	98.479121
1363.000000	98.481582
1362.000000	98.484331
1361.000000	98.486629
1360.000000	98.488022
1359.000000	98.488292
1358.000000	98.487696
1357.000000	98.487037
1356.000000	98.486823
1355.000000	98.486699
1354.000000	98.486141
1353.000000	98.485265
1352.000000	98.484458
1351.000000	98.484090
1350.000000	98.483968
1349.000000	98.483989
1348.000000	98.484253
1347.000000	98.484798
1346.000000	98.485437
1345.000000	98.485876
1344.000000	98.485871
1343.000000	98.485450
1342.000000	98.485055
1341.000000	98.485267
1340.000000	98.486189
1339.000000	98.487195
1338.000000	98.487608
1337.000000	98.487412
1336.000000	98.487003
1335.000000	98.486678
1334.000000	98.486503
1333.000000	98.486430
1332.000000	98.486380
1331.000000	98.486337
1330.000000	98.486397
1329.000000	98.486662
1328.000000	98.486990
1327.000000	98.487072
1326.000000	98.486761
1325.000000	98.486294
1324.000000	98.486012
1323.000000	98.486020
1322.000000	98.486255
1321.000000	98.486610
1320.000000	98.486896
1319.000000	98.486883
1318.000000	98.486548
1317.000000	98.486145
1316.000000	98.485957
1315.000000	98.486068
1314.000000	98.486408
1313.000000	98.486846
1312.000000	98.487196
1311.000000	98.487225
1310.000000	98.486825
1309.000000	98.486208
1308.000000	98.485761
1307.000000	98.485712
1306.000000	98.486012
1305.000000	98.486534
1304.000000	98.487100
1303.000000	98.487383
1302.000000	98.487131
1301.000000	98.486497
1300.000000	98.485979
1299.000000	98.485999
1298.000000	98.486691
1297.000000	98.487808
1296.000000	98.488693
1295.000000	98.488629
1294.000000	98.487588
1293.000000	98.486379
1292.000000	98.485622
1291.000000	98.485155
1290.000000	98.484849
1289.000000	98.485227
1288.000000	98.486548
1287.000000	98.487841
1286.000000	98.487898
1285.000000	98.486948
1284.000000	98.486341
1283.000000	98.486660
1282.000000	98.487110
1281.000000	98.486851
1280.000000	98.485995
1279.000000	98.485063
1278.000000	98.484313
1277.000000	98.483779
1276.000000	98.483388
1275.000000	98.482868
1274.000000	98.482095
1273.000000	98.481653
1272.000000	98.482485
1271.000000	98.484826
1270.000000	98.487842
1269.000000	98.490248
1268.000000	98.490983
1267.000000	98.489581
1266.000000	98.486637
1265.000000	98.483476
1264.000000	98.480858
1263.000000	98.478696
1262.000000	98.477443
1261.000000	98.478355
1260.000000	98.481529
1259.000000	98.484894
1258.000000	98.486682
1257.000000	98.487306
1256.000000	98.487130
1255.000000	98.484084
1254.000000	98.476044
1253.000000	98.464777
1252.000000	98.455197
1251.000000	98.450716
1250.000000	98.451135
1249.000000	98.454541
1248.000000	98.459052
1247.000000	98.462600
1246.000000	98.463252
1245.000000	98.460217
1244.000000	98.453675
1243.000000	98.444365
1242.000000	98.434562
1241.000000	98.428211
1240.000000	98.427896
1239.000000	98.431818
1238.000000	98.435348
1237.000000	98.435421
1236.000000	98.432076
1235.000000	98.426709
1234.000000	98.420925
1233.000000	98.416375
1232.000000	98.413377
1231.000000	98.409882
1230.000000	98.403887
1229.000000	98.396526
1228.000000	98.390655
1227.000000	98.386609
1226.000000	98.381572
1225.000000	98.373326
1224.000000	98.362568
1223.000000	98.351213
1222.000000	98.340128
1221.000000	98.329032
1220.000000	98.317338
1219.000000	98.304763
1218.000000	98.292103
1217.000000	98.280977
1216.000000	98.271382
1215.000000	98.260119
1214.000000	98.243424
1213.000000	98.220852
1212.000000	98.195040
1211.000000	98.168506
1210.000000	98.142699
1209.000000	98.119462
1208.000000	98.100566
1207.000000	98.085467
1206.000000	98.072044
1205.000000	98.060021
1204.000000	98.051011
1203.000000	98.044215
1202.000000	98.034796
1201.000000	98.018245
1200.000000	97.994442
1199.000000	97.966254
1198.000000	97.936187
1197.000000	97.906039
1196.000000	97.878114
1195.000000	97.854348
1194.000000	97.834592
1193.000000	97.817365
1192.000000	97.801775
1191.000000	97.787368
1190.000000	97.772760
1189.000000	97.756016
1188.000000	97.736485
1187.000000	97.715563
1186.000000	97.695828
1185.000000	97.679366
1184.000000	97.665780
1183.000000	97.651158
1182.000000	97.630339
1181.000000	97.601548
1180.000000	97.568241
1179.000000	97.535710
1178.000000	97.506685
1177.000000	97.481005
1176.000000	97.457931
1175.000000	97.436696
1174.000000	97.415399
1173.000000	97.391441
1172.000000	97.363448
1171.000000	97.332050
1170.000000	97.299252
1169.000000	97.267786
1168.000000	97.240328
1167.000000	97.218055
1166.000000	97.200247
1165.000000	97.185949
1164.000000	97.175319
1163.000000	97.168950
1162.000000	97.167292
1161.000000	97.171323
1160.000000	97.181543
1159.000000	97.194796
1158.000000	97.204497
1157.000000	97.206275
1156.000000	97.201283
1155.000000	97.191975
1154.000000	97.177245
1153.000000	97.154961
1152.000000	97.127674
1151.000000	97.101992
1150.000000	97.082269
1149.000000	97.067732
1148.000000	97.055467
1147.000000	97.042730
1146.000000	97.026206
1145.000000	97.002693
1144.000000	96.972242
1143.000000	96.938844
1142.000000	96.906987
1141.000000	96.878673
1140.000000	96.854090
1139.000000	96.833036
1138.000000	96.814713
1137.000000	96.797694
1136.000000	96.781107
1135.000000	96.765035
1134.000000	96.749334
1133.000000	96.732692
1132.000000	96.712971
1131.000000	96.688352
1130.000000	96.659219
1129.000000	96.629594
1128.000000	96.604906
1127.000000	96.586549
1126.000000	96.570007
1125.000000	96.550357
1124.000000	96.528092
1123.000000	96.506838
1122.000000	96.486796
1121.000000	96.464090
1120.000000	96.436390
1119.000000	96.405744
1118.000000	96.375410
1117.000000	96.346620
1116.000000	96.319228
1115.000000	96.292961
1114.000000	96.267009
1113.000000	96.240577
1112.000000	96.214484
1111.000000	96.189929
1110.000000	96.165222
1109.000000	96.137037
1108.000000	96.105800
1107.000000	96.076906
1106.000000	96.054816
1105.000000	96.038475
1104.000000	96.023813
1103.000000	96.007999
1102.000000	95.989619
1101.000000	95.967113
1100.000000	95.939383
1099.000000	95.907605
1098.000000	95.875038
1097.000000	95.845764
1096.000000	95.823062
1095.000000	95.806993
1094.000000	95.793359
1093.000000	95.777209
1092.000000	95.757779
1091.000000	95.738161
1090.000000	95.720689
1089.000000	95.705176
1088.000000	95.691082
1087.000000	95.677911
1086.000000	95.663391
1085.000000	95.645108
1084.000000	95.625065
1083.000000	95.609306
1082.000000	95.601244
1081.000000	95.597503
1080.000000	95.591571
1079.000000	95.579703
1078.000000	95.562816
1077.000000	95.544820
1076.000000	95.529575
1075.000000	95.517144
1074.000000	95.502627
1073.000000	95.480897
1072.000000	95.452447
1071.000000	95.421932
1070.000000	95.390493
1069.000000	95.352730
1068.000000	95.303112
1067.000000	95.243420
1066.000000	95.182437
1065.000000	95.129126
1064.000000	95.086630
1063.000000	95.051117
1062.000000	95.015061
1061.000000	94.972943
1060.000000	94.925389
1059.000000	94.878344
1058.000000	94.838271
1057.000000	94.807328
1056.000000	94.781196
1055.000000	94.751160
1054.000000	94.711179
1053.000000	94.664548
1052.000000	94.620391
1051.000000	94.581309
1050.000000	94.539142
1049.000000	94.487188
1048.000000	94.430695
1047.000000	94.379007
1046.000000	94.332624
1045.000000	94.285180
1044.000000	94.234052
1043.000000	94.181712
1042.000000	94.129282
1041.000000	94.076165
1040.000000	94.024878
1039.000000	93.978929
1038.000000	93.936197
1037.000000	93.891504
1036.000000	93.846010
1035.000000	93.807138
1034.000000	93.778517
1033.000000	93.756370
1032.000000	93.736340
1031.000000	93.717747
1030.000000	93.700535
1029.000000	93.684247
1028.000000	93.670847
1027.000000	93.662432
1026.000000	93.655383
1025.000000	93.642979
1024.000000	93.624925
1023.000000	93.608434
1022.000000	93.598769
1021.000000	93.594033
1020.000000	93.589844
1019.000000	93.583413
1018.000000	93.572463
1017.000000	93.556382
1016.000000	93.539901
1015.000000	93.530091
1014.000000	93.527955
1013.000000	93.527351
1012.000000	93.522956
1011.000000	93.515010
1010.000000	93.506508
1009.000000	93.500784
1008.000000	93.501338
1007.000000	93.508235
1006.000000	93.514700
1005.000000	93.513482
1004.000000	93.507154
1003.000000	93.506092
1002.000000	93.515872
1001.000000	93.532509
1000.000000	93.550208
999.000000	93.567366
998.000000	93.583688
997.000000	93.597733
996.000000	93.609596
995.000000	93.621285
994.000000	93.633176
993.000000	93.644439
992.000000	93.657210
991.000000	93.675218
990.000000	93.698233
989.000000	93.723405
988.000000	93.751910
987.000000	93.787609
986.000000	93.828354
985.000000	93.865621
984.000000	93.895243
983.000000	93.923153
982.000000	93.958390
981.000000	94.005303
980.000000	94.063615
979.000000	94.130156
978.000000	94.198458
977.000000	94.262050
976.000000	94.320846
975.000000	94.380539
974.000000	94.444489
973.000000	94.510314
972.000000	94.575246
971.000000	94.639808
970.000000	94.704473
969.000000	94.767396
968.000000	94.827823
967.000000	94.888081
966.000000	94.950089
965.000000	95.012717
964.000000	95.073573
963.000000	95.130177
962.000000	95.179207
961.000000	95.219426
960.000000	95.256979
959.000000	95.303016
958.000000	95.362455
957.000000	95.427842
956.000000	95.487134
955.000000	95.535012
954.000000	95.574519
953.000000	95.610608
952.000000	95.645400
951.000000	95.678667
950.000000	95.709914
949.000000	95.739174
948.000000	95.766490
947.000000	95.791053
946.000000	95.811843
945.000000	95.830239
944.000000	95.850854
943.000000	95.877203
942.000000	95.906718
941.000000	95.932694
940.000000	95.951449
939.000000	95.965416
938.000000	95.979452
937.000000	95.996504
936.000000	96.016935
935.000000	96.039278
934.000000	96.061051
933.000000	96.081329
932.000000	96.102850
931.000000	96.128752
930.000000	96.156570
929.000000	96.178618
928.000000	96.190106
927.000000	96.195116
926.000000	96.203132
925.000000	96.220399
924.000000	96.245260
923.000000	96.270734
922.000000	96.291296
921.000000	96.308028
920.000000	96.326620
919.000000	96.349426
918.000000	96.371201
917.000000	96.385066
916.000000	96.391428
915.000000	96.397768
914.000000	96.410332
913.000000	96.429840
912.000000	96.454967
911.000000	96.485339
910.000000	96.519594
909.000000	96.554095
908.000000	96.586259
907.000000	96.617493
906.000000	96.651212
905.000000	96.689340
904.000000	96.731776
903.000000	96.777784
902.000000	96.826629
901.000000	96.877416
900.000000	96.928506
899.000000	96.976752
898.000000	97.018612
897.000000	97.053687
896.000000	97.086303
895.000000	97.122024
894.000000	97.163121
893.000000	97.208530
892.000000	97.256251
891.000000	97.302907
890.000000	97.342776
889.000000	97.371789
888.000000	97.393033
887.000000	97.414982
886.000000	97.442889
885.000000	97.474399
884.000000	97.504624
883.000000	97.532661
882.000000	97.561507
881.000000	97.593790
880.000000	97.629536
879.000000	97.666975
878.000000	97.703944
877.000000	97.739145
876.000000	97.772909
875.000000	97.806544
874.000000	97.841236
873.000000	97.878012
872.000000	97.917300
871.000000	97.956756
870.000000	97.991047
869.000000	98.016763
868.000000	98.037048
867.000000	98.058624
866.000000	98.084398
865.000000	98.112027
864.000000	98.139881
863.000000	98.170100
862.000000	98.203223
861.000000	98.233110
860.000000	98.251861
859.000000	98.259745
858.000000	98.267150
857.000000	98.284971
856.000000	98.314217
855.000000	98.346089
854.000000	98.371047
853.000000	98.386605
852.000000	98.397019
851.000000	98.407431
850.000000	98.419390
849.000000	98.431437
848.000000	98.442280
847.000000	98.452343
846.000000	98.462553
845.000000	98.471978
844.000000	98.476704
843.000000	98.471677
842.000000	98.455280
841.000000	98.432860
840.000000	98.414428
839.000000	98.406848
838.000000	98.407692
837.000000	98.407425
836.000000	98.397695
835.000000	98.377464
834.000000	98.352557
833.000000	98.330878
832.000000	98.317630
831.000000	98.313001
830.000000	98.312754
829.000000	98.310637
828.000000	98.300705
827.000000	98.279801
826.000000	98.252081
825.000000	98.231838
824.000000	98.235955
823.000000	98.267921
822.000000	98.311891
821.000000	98.347685
820.000000	98.368480
819.000000	98.378925
818.000000	98.380377
817.000000	98.365714
816.000000	98.329636
815.000000	98.278597
814.000000	98.227066
813.000000	98.185132
812.000000	98.150994
811.000000	98.113351
810.000000	98.059754
809.000000	97.985412
808.000000	97.896083
807.000000	97.800770
806.000000	97.700533
805.000000	97.587953
804.000000	97.460029
803.000000	97.328059
802.000000	97.211041
801.000000	97.121630
800.000000	97.061620
799.000000	97.026800
798.000000	97.010787
797.000000	97.006842
796.000000	97.012144
795.000000	97.030542
794.000000	97.066582
793.000000	97.115445
792.000000	97.161831
791.000000	97.191357
790.000000	97.202733
789.000000	97.206915
788.000000	97.213888
787.000000	97.221455
786.000000	97.217728
785.000000	97.193883
784.000000	97.152702
783.000000	97.104675
782.000000	97.058898
781.000000	97.020212
780.000000	96.992719
779.000000	96.980968
778.000000	96.986325
777.000000	97.005371
776.000000	97.033785
775.000000	97.069792
774.000000	97.112187
773.000000	97.156631
772.000000	97.196185
771.000000	97.226509
770.000000	97.250785
769.000000	97.278157
768.000000	97.314647
767.000000	97.354936
766.000000	97.386154
765.000000	97.401724
764.000000	97.408003
763.000000	97.414698
762.000000	97.422990
761.000000	97.428648
760.000000	97.433793
759.000000	97.447237
758.000000	97.472160
757.000000	97.500703
756.000000	97.523914
755.000000	97.541618
754.000000	97.558712
753.000000	97.576169
752.000000	97.590623
751.000000	97.600839
750.000000	97.610053
749.000000	97.621928
748.000000	97.637159
747.000000	97.654718
746.000000	97.675145
745.000000	97.701944
744.000000	97.739212
743.000000	97.786704
742.000000	97.837414
741.000000	97.882364
740.000000	97.918440
739.000000	97.949647
738.000000	97.980447
737.000000	98.010441
736.000000	98.037059
735.000000	98.060903
734.000000	98.085496
733.000000	98.112186
732.000000	98.137224
731.000000	98.154373
730.000000	98.160148
729.000000	98.157421
728.000000	98.154299
727.000000	98.158079
726.000000	98.169524
725.000000	98.183801
724.000000	98.197189
723.000000	98.211370
722.000000	98.230178
721.000000	98.253457
720.000000	98.276003
719.000000	98.292599
718.000000	98.302515
717.000000	98.308477
716.000000	98.312567
715.000000	98.314733
714.000000	98.315617
713.000000	98.319472
712.000000	98.331815
711.000000	98.353184
710.000000	98.377154
709.000000	98.396433
708.000000	98.409532
707.000000	98.419122
706.000000	98.425106
705.000000	98.422643
704.000000	98.407380
703.000000	98.379491
702.000000	98.341377
701.000000	98.294043
700.000000	98.237786
699.000000	98.174753
698.000000	98.109636
697.000000	98.049699
696.000000	98.004843
695.000000	97.984839
694.000000	97.993069
693.000000	98.023078
692.000000	98.063129
691.000000	98.104764
690.000000	98.146490
689.000000	98.188514
688.000000	98.225100
687.000000	98.245493
686.000000	98.245141
685.000000	98.234388
684.000000	98.231959
683.000000	98.248231
682.000000	98.277475
681.000000	98.307334
680.000000	98.332374
679.000000	98.354306
678.000000	98.372300
677.000000	98.381594
676.000000	98.382063
675.000000	98.380234
674.000000	98.381190
673.000000	98.384218
672.000000	98.387556
671.000000	98.392694
670.000000	98.401977
669.000000	98.414032
668.000000	98.424128
667.000000	98.430845
666.000000	98.433985
665.000000	98.430619
664.000000	98.423152
663.000000	98.418592
662.000000	98.421873
661.000000	98.431980
660.000000	98.443748
659.000000	98.451342
658.000000	98.450201
657.000000	98.440307
656.000000	98.428403
655.000000	98.423810
654.000000	98.428640
653.000000	98.435183
652.000000	98.435290
651.000000	98.430200
650.000000	98.428033
649.000000	98.432535
648.000000	98.439447
647.000000	98.443898
646.000000	98.447710
645.000000	98.456065
644.000000	98.468637
643.000000	98.478220
642.000000	98.478536
641.000000	98.472042
640.000000	98.467221
639.000000	98.469219
638.000000	98.473980
637.000000	98.472812
636.000000	98.463033
635.000000	98.451893
634.000000	98.448461
633.000000	98.453424
632.000000	98.460064
631.000000	98.463562
630.000000	98.465835
629.000000	98.470790
628.000000	98.478381
627.000000	98.485729
626.000000	98.492034
625.000000	98.498423
624.000000	98.503329
623.000000	98.502097
622.000000	98.492894
621.000000	98.480866
620.000000	98.474787
619.000000	98.480505
618.000000	98.495803
617.000000	98.509679
616.000000	98.510370
615.000000	98.497786
614.000000	98.486431
613.000000	98.489132
612.000000	98.499795
611.000000	98.500652
610.000000	98.486337
609.000000	98.472124
608.000000	98.474187
607.000000	98.490457
606.000000	98.506595
605.000000	98.512939
604.000000	98.506898
603.000000	98.485224
602.000000	98.447957
601.000000	98.408717
600.000000	98.388235
599.000000	98.394460
598.000000	98.416384
597.000000	98.439735
596.000000	98.462010
595.000000	98.484400
594.000000	98.500314
593.000000	98.502780
592.000000	98.495637
591.000000	98.488296
590.000000	98.484297
589.000000	98.483882
588.000000	98.492210
587.000000	98.512633
586.000000	98.533614
585.000000	98.536050
584.000000	98.514612
583.000000	98.481611
582.000000	98.451449
581.000000	98.429626
580.000000	98.420105
579.000000	98.429611
578.000000	98.457177
577.000000	98.489075
576.000000	98.511150
575.000000	98.521078
574.000000	98.526825
573.000000	98.538540
572.000000	98.560633
571.000000	98.582759
570.000000	98.582498
569.000000	98.549551
568.000000	98.502049
567.000000	98.471705
566.000000	98.467101
565.000000	98.469363
564.000000	98.462942
563.000000	98.453581
562.000000	98.451420
561.000000	98.452276
560.000000	98.446569
559.000000	98.434683
558.000000	98.423144
557.000000	98.414978
556.000000	98.413265
555.000000	98.424005
554.000000	98.445383
553.000000	98.462730
552.000000	98.464233
551.000000	98.453929
550.000000	98.445724
