PE IR       SUBTECH     SPECTRUM    ASCII       PEDS        4.00        
   -1
BH1 8-1 1 65_1.asc
24/05/17
14:59:19.00
24/05/17
14:59:23.00
Administrator
?品 015 用? Administrator 日期 Friday, May 17 2024
550.000000
#HDR
-1
-1
#GR
cm-1
%T
1.0
0.0
4000.000000
-1.000000
3451
8
99.706800
89.046162
#DATA
4000.000000	99.531685
3999.000000	99.531655
3998.000000	99.531337
3997.000000	99.530682
3996.000000	99.529815
3995.000000	99.528967
3994.000000	99.528300
3993.000000	99.527844
3992.000000	99.527505
3991.000000	99.527098
3990.000000	99.526446
3989.000000	99.525487
3988.000000	99.524368
3987.000000	99.523419
3986.000000	99.522969
3985.000000	99.523183
3984.000000	99.523914
3983.000000	99.524593
3982.000000	99.524494
3981.000000	99.523182
3980.000000	99.520917
3979.000000	99.518615
3978.000000	99.517106
3977.000000	99.516656
3976.000000	99.517063
3975.000000	99.517939
3974.000000	99.518889
3973.000000	99.519483
3972.000000	99.519294
3971.000000	99.518085
3970.000000	99.516078
3969.000000	99.514093
3968.000000	99.513209
3967.000000	99.514047
3966.000000	99.516260
3965.000000	99.518821
3964.000000	99.520900
3963.000000	99.522390
3962.000000	99.523555
3961.000000	99.524361
3960.000000	99.524466
3959.000000	99.523807
3958.000000	99.522889
3957.000000	99.522243
3956.000000	99.521699
3955.000000	99.520556
3954.000000	99.518481
3953.000000	99.515984
3952.000000	99.513724
3951.000000	99.511544
3950.000000	99.508697
3949.000000	99.505121
3948.000000	99.502162
3947.000000	99.501688
3946.000000	99.504700
3945.000000	99.510907
3944.000000	99.518976
3943.000000	99.526923
3942.000000	99.532633
3941.000000	99.534930
3940.000000	99.534302
3939.000000	99.532277
3938.000000	99.529922
3937.000000	99.527081
3936.000000	99.523168
3935.000000	99.518439
3934.000000	99.514188
3933.000000	99.511757
3932.000000	99.511337
3931.000000	99.511817
3930.000000	99.511823
3929.000000	99.510680
3928.000000	99.508641
3927.000000	99.506585
3926.000000	99.505636
3925.000000	99.506684
3924.000000	99.509706
3923.000000	99.513598
3922.000000	99.516797
3921.000000	99.518072
3920.000000	99.517132
3919.000000	99.514790
3918.000000	99.512457
3917.000000	99.511092
3916.000000	99.510657
3915.000000	99.510582
3914.000000	99.510525
3913.000000	99.510531
3912.000000	99.510682
3911.000000	99.510890
3910.000000	99.511064
3909.000000	99.511239
3908.000000	99.511462
3907.000000	99.511654
3906.000000	99.511677
3905.000000	99.511524
3904.000000	99.511321
3903.000000	99.511182
3902.000000	99.511144
3901.000000	99.511164
3900.000000	99.511188
3899.000000	99.511210
3898.000000	99.511261
3897.000000	99.511342
3896.000000	99.511454
3895.000000	99.511606
3894.000000	99.511802
3893.000000	99.512041
3892.000000	99.512313
3891.000000	99.512605
3890.000000	99.512907
3889.000000	99.513209
3888.000000	99.513499
3887.000000	99.513770
3886.000000	99.514018
3885.000000	99.514256
3884.000000	99.514500
3883.000000	99.514767
3882.000000	99.515068
3881.000000	99.515412
3880.000000	99.515803
3879.000000	99.516226
3878.000000	99.516639
3877.000000	99.516993
3876.000000	99.517259
3875.000000	99.517503
3874.000000	99.517888
3873.000000	99.518536
3872.000000	99.519405
3871.000000	99.520302
3870.000000	99.521088
3869.000000	99.521725
3868.000000	99.522185
3867.000000	99.522383
3866.000000	99.522220
3865.000000	99.521759
3864.000000	99.521393
3863.000000	99.521586
3862.000000	99.522477
3861.000000	99.523757
3860.000000	99.524922
3859.000000	99.525711
3858.000000	99.526257
3857.000000	99.526869
3856.000000	99.527627
3855.000000	99.528117
3854.000000	99.528339
3853.000000	99.528862
3852.000000	99.529496
3851.000000	99.529684
3850.000000	99.529318
3849.000000	99.528387
3848.000000	99.527014
3847.000000	99.525556
3846.000000	99.524556
3845.000000	99.524524
3844.000000	99.525658
3843.000000	99.527774
3842.000000	99.530421
3841.000000	99.532986
3840.000000	99.534728
3839.000000	99.534939
3838.000000	99.533391
3837.000000	99.530829
3836.000000	99.528683
3835.000000	99.528014
3834.000000	99.528908
3833.000000	99.530506
3832.000000	99.531622
3831.000000	99.531573
3830.000000	99.530571
3829.000000	99.529283
3828.000000	99.528092
3827.000000	99.527000
3826.000000	99.526068
3825.000000	99.525532
3824.000000	99.525389
3823.000000	99.524977
3822.000000	99.524038
3821.000000	99.523552
3820.000000	99.523671
3819.000000	99.523273
3818.000000	99.521801
3817.000000	99.519626
3816.000000	99.517604
3815.000000	99.516088
3814.000000	99.514767
3813.000000	99.513802
3812.000000	99.514078
3811.000000	99.516242
3810.000000	99.519678
3809.000000	99.522251
3808.000000	99.522137
3807.000000	99.520249
3806.000000	99.519616
3805.000000	99.522021
3804.000000	99.526402
3803.000000	99.529807
3802.000000	99.530634
3801.000000	99.530066
3800.000000	99.529704
3799.000000	99.530084
3798.000000	99.530813
3797.000000	99.530815
3796.000000	99.529055
3795.000000	99.525270
3794.000000	99.520480
3793.000000	99.516499
3792.000000	99.514563
3791.000000	99.514473
3790.000000	99.515120
3789.000000	99.515724
3788.000000	99.516617
3787.000000	99.518814
3786.000000	99.522812
3785.000000	99.527781
3784.000000	99.532053
3783.000000	99.534506
3782.000000	99.535169
3781.000000	99.534465
3780.000000	99.532345
3779.000000	99.528159
3778.000000	99.521701
3777.000000	99.514533
3776.000000	99.509346
3775.000000	99.507628
3774.000000	99.508590
3773.000000	99.510128
3772.000000	99.510730
3771.000000	99.510834
3770.000000	99.512050
3769.000000	99.514648
3768.000000	99.516969
3767.000000	99.517594
3766.000000	99.516745
3765.000000	99.515707
3764.000000	99.515331
3763.000000	99.515236
3762.000000	99.514136
3761.000000	99.511241
3760.000000	99.508010
3759.000000	99.507330
3758.000000	99.510348
3757.000000	99.515382
3756.000000	99.520155
3755.000000	99.524096
3754.000000	99.528251
3753.000000	99.533179
3752.000000	99.537081
3751.000000	99.537112
3750.000000	99.532831
3749.000000	99.527869
3748.000000	99.526618
3747.000000	99.529982
3746.000000	99.534839
3745.000000	99.537256
3744.000000	99.535051
3743.000000	99.528488
3742.000000	99.520055
3741.000000	99.512286
3740.000000	99.506152
3739.000000	99.501427
3738.000000	99.497226
3737.000000	99.493314
3736.000000	99.491168
3735.000000	99.492124
3734.000000	99.494656
3733.000000	99.495707
3732.000000	99.493932
3731.000000	99.490458
3730.000000	99.487318
3729.000000	99.485647
3728.000000	99.485107
3727.000000	99.484771
3726.000000	99.484058
3725.000000	99.482670
3724.000000	99.480216
3723.000000	99.476425
3722.000000	99.471628
3721.000000	99.466732
3720.000000	99.462856
3719.000000	99.460684
3718.000000	99.459990
3717.000000	99.459941
3716.000000	99.459751
3715.000000	99.459156
3714.000000	99.458060
3713.000000	99.455983
3712.000000	99.452677
3711.000000	99.448526
3710.000000	99.444482
3709.000000	99.441792
3708.000000	99.440771
3707.000000	99.440051
3706.000000	99.437447
3705.000000	99.431804
3704.000000	99.424324
3703.000000	99.418223
3702.000000	99.416132
3701.000000	99.416909
3700.000000	99.416503
3699.000000	99.412459
3698.000000	99.405880
3697.000000	99.399834
3696.000000	99.396614
3695.000000	99.395951
3694.000000	99.395285
3693.000000	99.391568
3692.000000	99.383772
3691.000000	99.374331
3690.000000	99.367766
3689.000000	99.365499
3688.000000	99.363969
3687.000000	99.360352
3686.000000	99.355625
3685.000000	99.351604
3684.000000	99.348780
3683.000000	99.346503
3682.000000	99.344191
3681.000000	99.342403
3680.000000	99.342396
3679.000000	99.343993
3678.000000	99.343436
3677.000000	99.334903
3676.000000	99.318590
3675.000000	99.302186
3674.000000	99.290959
3673.000000	99.284121
3672.000000	99.277810
3671.000000	99.267535
3670.000000	99.253810
3669.000000	99.240358
3668.000000	99.227385
3667.000000	99.212585
3666.000000	99.194690
3665.000000	99.174853
3664.000000	99.156201
3663.000000	99.141266
3662.000000	99.130235
3661.000000	99.121985
3660.000000	99.116084
3659.000000	99.113067
3658.000000	99.112609
3657.000000	99.112738
3656.000000	99.110802
3655.000000	99.105669
3654.000000	99.099257
3653.000000	99.094234
3652.000000	99.090985
3651.000000	99.087320
3650.000000	99.080543
3649.000000	99.067944
3648.000000	99.049222
3647.000000	99.029219
3646.000000	99.012890
3645.000000	99.000267
3644.000000	98.988124
3643.000000	98.974142
3642.000000	98.959001
3641.000000	98.945118
3640.000000	98.933912
3639.000000	98.925230
3638.000000	98.918480
3637.000000	98.912996
3636.000000	98.907411
3635.000000	98.899817
3634.000000	98.889394
3633.000000	98.877254
3632.000000	98.865371
3631.000000	98.855239
3630.000000	98.848603
3629.000000	98.848248
3628.000000	98.851454
3627.000000	98.852003
3626.000000	98.849715
3625.000000	98.847476
3624.000000	98.845858
3623.000000	98.843825
3622.000000	98.840914
3621.000000	98.838089
3620.000000	98.837395
3619.000000	98.839759
3618.000000	98.843078
3617.000000	98.844996
3616.000000	98.845923
3615.000000	98.848204
3614.000000	98.854598
3613.000000	98.866138
3612.000000	98.879988
3611.000000	98.891007
3610.000000	98.895960
3609.000000	98.896354
3608.000000	98.897322
3607.000000	98.902009
3606.000000	98.908482
3605.000000	98.912547
3604.000000	98.911514
3603.000000	98.906079
3602.000000	98.900014
3601.000000	98.897651
3600.000000	98.900564
3599.000000	98.906454
3598.000000	98.911364
3597.000000	98.913182
3596.000000	98.912839
3595.000000	98.912729
3594.000000	98.913870
3593.000000	98.914817
3592.000000	98.913784
3591.000000	98.910796
3590.000000	98.907777
3589.000000	98.907691
3588.000000	98.912807
3587.000000	98.921288
3586.000000	98.927662
3585.000000	98.928933
3584.000000	98.926643
3583.000000	98.923748
3582.000000	98.921731
3581.000000	98.920468
3580.000000	98.919330
3579.000000	98.917995
3578.000000	98.916469
3577.000000	98.914648
3576.000000	98.912061
3575.000000	98.907900
3574.000000	98.901740
3573.000000	98.894269
3572.000000	98.887149
3571.000000	98.881728
3570.000000	98.877924
3569.000000	98.874761
3568.000000	98.872296
3567.000000	98.871740
3566.000000	98.872880
3565.000000	98.873759
3564.000000	98.873000
3563.000000	98.870703
3562.000000	98.867910
3561.000000	98.865879
3560.000000	98.865426
3559.000000	98.866524
3558.000000	98.868282
3557.000000	98.869316
3556.000000	98.868381
3555.000000	98.865008
3554.000000	98.859948
3553.000000	98.855054
3552.000000	98.852081
3551.000000	98.851339
3550.000000	98.851708
3549.000000	98.851693
3548.000000	98.850418
3547.000000	98.847884
3546.000000	98.844556
3545.000000	98.840984
3544.000000	98.837819
3543.000000	98.835794
3542.000000	98.835268
3541.000000	98.835826
3540.000000	98.836547
3539.000000	98.836770
3538.000000	98.836603
3537.000000	98.836598
3536.000000	98.836957
3535.000000	98.837199
3534.000000	98.836614
3533.000000	98.834890
3532.000000	98.832307
3531.000000	98.829597
3530.000000	98.827598
3529.000000	98.826781
3528.000000	98.826979
3527.000000	98.827499
3526.000000	98.827664
3525.000000	98.827360
3524.000000	98.826943
3523.000000	98.826697
3522.000000	98.826497
3521.000000	98.826047
3520.000000	98.825291
3519.000000	98.824424
3518.000000	98.823556
3517.000000	98.822595
3516.000000	98.821500
3515.000000	98.820471
3514.000000	98.819792
3513.000000	98.819493
3512.000000	98.819333
3511.000000	98.819088
3510.000000	98.818725
3509.000000	98.818312
3508.000000	98.817888
3507.000000	98.817449
3506.000000	98.816999
3505.000000	98.816548
3504.000000	98.816106
3503.000000	98.815677
3502.000000	98.815257
3501.000000	98.814841
3500.000000	98.814422
3499.000000	98.813989
3498.000000	98.813534
3497.000000	98.813053
3496.000000	98.812552
3495.000000	98.812045
3494.000000	98.811547
3493.000000	98.811063
3492.000000	98.810586
3491.000000	98.810101
3490.000000	98.809591
3489.000000	98.809043
3488.000000	98.808454
3487.000000	98.807824
3486.000000	98.807155
3485.000000	98.806449
3484.000000	98.805709
3483.000000	98.804943
3482.000000	98.804163
3481.000000	98.803378
3480.000000	98.802596
3479.000000	98.801819
3478.000000	98.801042
3477.000000	98.800262
3476.000000	98.799474
3475.000000	98.798675
3474.000000	98.797853
3473.000000	98.796988
3472.000000	98.796054
3471.000000	98.795036
3470.000000	98.793939
3469.000000	98.792791
3468.000000	98.791625
3467.000000	98.790478
3466.000000	98.789369
3465.000000	98.788267
3464.000000	98.787145
3463.000000	98.786029
3462.000000	98.784966
3461.000000	98.783940
3460.000000	98.782846
3459.000000	98.781598
3458.000000	98.780229
3457.000000	98.778844
3456.000000	98.777494
3455.000000	98.776129
3454.000000	98.774692
3453.000000	98.773218
3452.000000	98.771752
3451.000000	98.770169
3450.000000	98.768227
3449.000000	98.765888
3448.000000	98.763572
3447.000000	98.761881
3446.000000	98.761034
3445.000000	98.760687
3444.000000	98.760314
3443.000000	98.759640
3442.000000	98.758611
3441.000000	98.757167
3440.000000	98.755291
3439.000000	98.753253
3438.000000	98.751562
3437.000000	98.750503
3436.000000	98.749784
3435.000000	98.748766
3434.000000	98.747013
3433.000000	98.744617
3432.000000	98.742105
3431.000000	98.740093
3430.000000	98.738921
3429.000000	98.738422
3428.000000	98.737941
3427.000000	98.736922
3426.000000	98.735590
3425.000000	98.734709
3424.000000	98.734643
3423.000000	98.735115
3422.000000	98.735890
3421.000000	98.737182
3420.000000	98.739105
3419.000000	98.740976
3418.000000	98.741575
3417.000000	98.740169
3416.000000	98.737048
3415.000000	98.733283
3414.000000	98.730145
3413.000000	98.728635
3412.000000	98.729234
3411.000000	98.731738
3410.000000	98.735298
3409.000000	98.738791
3408.000000	98.741297
3407.000000	98.742370
3406.000000	98.742085
3405.000000	98.740966
3404.000000	98.739767
3403.000000	98.739078
3402.000000	98.739019
3401.000000	98.739326
3400.000000	98.739727
3399.000000	98.740240
3398.000000	98.741155
3397.000000	98.742714
3396.000000	98.744770
3395.000000	98.746767
3394.000000	98.748137
3393.000000	98.748712
3392.000000	98.748685
3391.000000	98.748259
3390.000000	98.747474
3389.000000	98.746476
3388.000000	98.745745
3387.000000	98.745835
3386.000000	98.746906
3385.000000	98.748616
3384.000000	98.750343
3383.000000	98.751580
3382.000000	98.752204
3381.000000	98.752432
3380.000000	98.752673
3379.000000	98.753237
3378.000000	98.754123
3377.000000	98.755099
3376.000000	98.755966
3375.000000	98.756742
3374.000000	98.757566
3373.000000	98.758512
3372.000000	98.759531
3371.000000	98.760533
3370.000000	98.761459
3369.000000	98.762300
3368.000000	98.763086
3367.000000	98.763878
3366.000000	98.764756
3365.000000	98.765754
3364.000000	98.766844
3363.000000	98.767969
3362.000000	98.769077
3361.000000	98.770141
3360.000000	98.771158
3359.000000	98.772149
3358.000000	98.773141
3357.000000	98.774145
3356.000000	98.775163
3355.000000	98.776195
3354.000000	98.777246
3353.000000	98.778318
3352.000000	98.779413
3351.000000	98.780520
3350.000000	98.781634
3349.000000	98.782752
3348.000000	98.783882
3347.000000	98.785032
3346.000000	98.786200
3345.000000	98.787372
3344.000000	98.788532
3343.000000	98.789666
3342.000000	98.790771
3341.000000	98.791855
3340.000000	98.792932
3339.000000	98.794016
3338.000000	98.795114
3337.000000	98.796220
3336.000000	98.797323
3335.000000	98.798411
3334.000000	98.799478
3333.000000	98.800522
3332.000000	98.801533
3331.000000	98.802508
3330.000000	98.803459
3329.000000	98.804410
3328.000000	98.805380
3327.000000	98.806374
3326.000000	98.807391
3325.000000	98.808435
3324.000000	98.809505
3323.000000	98.810592
3322.000000	98.811680
3321.000000	98.812740
3320.000000	98.813738
3319.000000	98.814664
3318.000000	98.815547
3317.000000	98.816440
3316.000000	98.817385
3315.000000	98.818395
3314.000000	98.819464
3313.000000	98.820569
3312.000000	98.821662
3311.000000	98.822683
3310.000000	98.823588
3309.000000	98.824404
3308.000000	98.825229
3307.000000	98.826141
3306.000000	98.827089
3305.000000	98.827912
3304.000000	98.828513
3303.000000	98.829032
3302.000000	98.829761
3301.000000	98.830842
3300.000000	98.832146
3299.000000	98.833415
3298.000000	98.834541
3297.000000	98.835570
3296.000000	98.836511
3295.000000	98.837282
3294.000000	98.837869
3293.000000	98.838449
3292.000000	98.839276
3291.000000	98.840481
3290.000000	98.841937
3289.000000	98.843310
3288.000000	98.844296
3287.000000	98.844907
3286.000000	98.845498
3285.000000	98.846416
3284.000000	98.847626
3283.000000	98.848810
3282.000000	98.849798
3281.000000	98.850744
3280.000000	98.851866
3279.000000	98.853229
3278.000000	98.854806
3277.000000	98.856478
3276.000000	98.857908
3275.000000	98.858759
3274.000000	98.859145
3273.000000	98.859612
3272.000000	98.860396
3271.000000	98.860989
3270.000000	98.860746
3269.000000	98.859681
3268.000000	98.858448
3267.000000	98.857739
3266.000000	98.857910
3265.000000	98.858949
3264.000000	98.860445
3263.000000	98.861707
3262.000000	98.862397
3261.000000	98.862985
3260.000000	98.864249
3259.000000	98.866354
3258.000000	98.868646
3257.000000	98.870378
3256.000000	98.871284
3255.000000	98.871462
3254.000000	98.871191
3253.000000	98.871075
3252.000000	98.871980
3251.000000	98.874354
3250.000000	98.877654
3249.000000	98.880688
3248.000000	98.882727
3247.000000	98.884140
3246.000000	98.885852
3245.000000	98.888257
3244.000000	98.890783
3243.000000	98.892514
3242.000000	98.893153
3241.000000	98.893342
3240.000000	98.894063
3239.000000	98.895673
3238.000000	98.897583
3237.000000	98.898893
3236.000000	98.899281
3235.000000	98.899190
3234.000000	98.899231
3233.000000	98.899566
3232.000000	98.899994
3231.000000	98.900449
3230.000000	98.901251
3229.000000	98.902875
3228.000000	98.905543
3227.000000	98.909015
3226.000000	98.912615
3225.000000	98.915516
3224.000000	98.917264
3223.000000	98.918051
3222.000000	98.918542
3221.000000	98.919372
3220.000000	98.920740
3219.000000	98.922466
3218.000000	98.924223
3217.000000	98.925725
3216.000000	98.926873
3215.000000	98.927818
3214.000000	98.928805
3213.000000	98.929918
3212.000000	98.931053
3211.000000	98.932178
3210.000000	98.933467
3209.000000	98.935073
3208.000000	98.936884
3207.000000	98.938629
3206.000000	98.940155
3205.000000	98.941507
3204.000000	98.942827
3203.000000	98.944238
3202.000000	98.945800
3201.000000	98.947483
3200.000000	98.949191
3199.000000	98.950844
3198.000000	98.952440
3197.000000	98.954038
3196.000000	98.955683
3195.000000	98.957365
3194.000000	98.959042
3193.000000	98.960688
3192.000000	98.962307
3191.000000	98.963941
3190.000000	98.965658
3189.000000	98.967497
3188.000000	98.969431
3187.000000	98.971373
3186.000000	98.973243
3185.000000	98.975029
3184.000000	98.976793
3183.000000	98.978619
3182.000000	98.980528
3181.000000	98.982461
3180.000000	98.984330
3179.000000	98.986086
3178.000000	98.987758
3177.000000	98.989439
3176.000000	98.991213
3175.000000	98.993121
3174.000000	98.995174
3173.000000	98.997336
3172.000000	98.999468
3171.000000	99.001364
3170.000000	99.002902
3169.000000	99.004186
3168.000000	99.005530
3167.000000	99.007262
3166.000000	99.009564
3165.000000	99.012354
3164.000000	99.015184
3163.000000	99.017439
3162.000000	99.018801
3161.000000	99.019506
3160.000000	99.020174
3159.000000	99.021196
3158.000000	99.022471
3157.000000	99.023749
3156.000000	99.025060
3155.000000	99.026738
3154.000000	99.029063
3153.000000	99.031919
3152.000000	99.034782
3151.000000	99.037069
3150.000000	99.038604
3149.000000	99.039795
3148.000000	99.041226
3147.000000	99.042930
3146.000000	99.044299
3145.000000	99.044840
3144.000000	99.044849
3143.000000	99.045121
3142.000000	99.046011
3141.000000	99.047044
3140.000000	99.047589
3139.000000	99.047730
3138.000000	99.048305
3137.000000	99.050101
3136.000000	99.053101
3135.000000	99.056435
3134.000000	99.059068
3133.000000	99.060639
3132.000000	99.061661
3131.000000	99.062860
3130.000000	99.064395
3129.000000	99.065923
3128.000000	99.067362
3127.000000	99.069136
3126.000000	99.071451
3125.000000	99.073780
3124.000000	99.075484
3123.000000	99.076841
3122.000000	99.078853
3121.000000	99.082005
3120.000000	99.085609
3119.000000	99.088482
3118.000000	99.090173
3117.000000	99.091178
3116.000000	99.092273
3115.000000	99.093754
3114.000000	99.095358
3113.000000	99.096762
3112.000000	99.097968
3111.000000	99.099259
3110.000000	99.100868
3109.000000	99.102697
3108.000000	99.104400
3107.000000	99.105740
3106.000000	99.106832
3105.000000	99.108028
3104.000000	99.109574
3103.000000	99.111423
3102.000000	99.113335
3101.000000	99.115083
3100.000000	99.116605
3099.000000	99.117981
3098.000000	99.119340
3097.000000	99.120771
3096.000000	99.122295
3095.000000	99.123884
3094.000000	99.125505
3093.000000	99.127138
3092.000000	99.128763
3091.000000	99.130344
3090.000000	99.131823
3089.000000	99.133165
3088.000000	99.134391
3087.000000	99.135580
3086.000000	99.136833
3085.000000	99.138201
3084.000000	99.139676
3083.000000	99.141178
3082.000000	99.142607
3081.000000	99.143918
3080.000000	99.145156
3079.000000	99.146416
3078.000000	99.147759
3077.000000	99.149163
3076.000000	99.150515
3075.000000	99.151697
3074.000000	99.152713
3073.000000	99.153738
3072.000000	99.154973
3071.000000	99.156442
3070.000000	99.157988
3069.000000	99.159492
3068.000000	99.161021
3067.000000	99.162685
3066.000000	99.164388
3065.000000	99.165823
3064.000000	99.166746
3063.000000	99.167273
3062.000000	99.167852
3061.000000	99.168900
3060.000000	99.170462
3059.000000	99.172326
3058.000000	99.174431
3057.000000	99.176903
3056.000000	99.179716
3055.000000	99.182579
3054.000000	99.185315
3053.000000	99.188001
3052.000000	99.190483
3051.000000	99.192082
3050.000000	99.192275
3049.000000	99.191575
3048.000000	99.191330
3047.000000	99.192362
3046.000000	99.194104
3045.000000	99.195240
3044.000000	99.195165
3043.000000	99.194675
3042.000000	99.195232
3041.000000	99.197692
3040.000000	99.201755
3039.000000	99.206265
3038.000000	99.210107
3037.000000	99.212983
3036.000000	99.215303
3035.000000	99.217446
3034.000000	99.219367
3033.000000	99.221012
3032.000000	99.222827
3031.000000	99.225494
3030.000000	99.229111
3029.000000	99.232880
3028.000000	99.235717
3027.000000	99.237147
3026.000000	99.237615
3025.000000	99.237959
3024.000000	99.238612
3023.000000	99.239496
3022.000000	99.240584
3021.000000	99.242257
3020.000000	99.244882
3019.000000	99.248225
3018.000000	99.251724
3017.000000	99.255380
3016.000000	99.259819
3015.000000	99.265099
3014.000000	99.269956
3013.000000	99.272955
3012.000000	99.274212
3011.000000	99.275205
3010.000000	99.276782
3009.000000	99.277987
3008.000000	99.277366
3007.000000	99.275220
3006.000000	99.273999
3005.000000	99.276245
3004.000000	99.282422
3003.000000	99.290876
3002.000000	99.299578
3001.000000	99.307452
3000.000000	99.314119
2999.000000	99.319346
2998.000000	99.323371
2997.000000	99.327203
2996.000000	99.331686
2995.000000	99.336373
2994.000000	99.340013
2993.000000	99.342167
2992.000000	99.343650
2991.000000	99.345381
2990.000000	99.347484
2989.000000	99.349608
2988.000000	99.351358
2987.000000	99.352333
2986.000000	99.352800
2985.000000	99.354862
2984.000000	99.361829
2983.000000	99.375157
2982.000000	99.392079
2981.000000	99.407197
2980.000000	99.416942
2979.000000	99.421941
2978.000000	99.425262
2977.000000	99.428841
2976.000000	99.431619
2975.000000	99.430909
2974.000000	99.425530
2973.000000	99.417805
2972.000000	99.412356
2971.000000	99.412277
2970.000000	99.416400
2969.000000	99.420407
2968.000000	99.420459
2967.000000	99.415675
2966.000000	99.407755
2965.000000	99.399146
2964.000000	99.391677
2963.000000	99.386340
2962.000000	99.383688
2961.000000	99.384066
2960.000000	99.387206
2959.000000	99.391649
2958.000000	99.395096
2957.000000	99.395968
2956.000000	99.394687
2955.000000	99.393206
2954.000000	99.393262
2953.000000	99.395172
2952.000000	99.398012
2951.000000	99.400717
2950.000000	99.403211
2949.000000	99.406520
2948.000000	99.411372
2947.000000	99.416518
2946.000000	99.419172
2945.000000	99.417844
2944.000000	99.414330
2943.000000	99.412078
2942.000000	99.412757
2941.000000	99.415288
2940.000000	99.418046
2939.000000	99.420961
2938.000000	99.425102
2937.000000	99.431120
2936.000000	99.438772
2935.000000	99.447450
2934.000000	99.456345
2933.000000	99.464242
2932.000000	99.469809
2931.000000	99.472455
2930.000000	99.472935
2929.000000	99.472999
2928.000000	99.474310
2927.000000	99.477455
2926.000000	99.481904
2925.000000	99.486723
2924.000000	99.490948
2923.000000	99.493230
2922.000000	99.491858
2921.000000	99.486004
2920.000000	99.477001
2919.000000	99.467875
2918.000000	99.461344
2917.000000	99.458365
2916.000000	99.458243
2915.000000	99.459603
2914.000000	99.461372
2913.000000	99.463177
2912.000000	99.464851
2911.000000	99.465575
2910.000000	99.464044
2909.000000	99.459899
2908.000000	99.454684
2907.000000	99.450851
2906.000000	99.449876
2905.000000	99.451674
2904.000000	99.455309
2903.000000	99.459519
2902.000000	99.462556
2901.000000	99.462953
2900.000000	99.460742
2899.000000	99.457670
2898.000000	99.455778
2897.000000	99.455606
2896.000000	99.456037
2895.000000	99.455666
2894.000000	99.454218
2893.000000	99.452721
2892.000000	99.452371
2891.000000	99.453244
2890.000000	99.454226
2889.000000	99.454219
2888.000000	99.453208
2887.000000	99.451931
2886.000000	99.450837
2885.000000	99.449773
2884.000000	99.448615
2883.000000	99.447733
2882.000000	99.447599
2881.000000	99.448203
2880.000000	99.449101
2879.000000	99.449782
2878.000000	99.449972
2877.000000	99.449686
2876.000000	99.449109
2875.000000	99.448406
2874.000000	99.447577
2873.000000	99.446593
2872.000000	99.445602
2871.000000	99.444890
2870.000000	99.444607
2869.000000	99.444632
2868.000000	99.444735
2867.000000	99.444801
2866.000000	99.444860
2865.000000	99.444934
2864.000000	99.444932
2863.000000	99.444698
2862.000000	99.444175
2861.000000	99.443552
2860.000000	99.443163
2859.000000	99.443107
2858.000000	99.442962
2857.000000	99.442170
2856.000000	99.440711
2855.000000	99.439242
2854.000000	99.438468
2853.000000	99.438410
2852.000000	99.438443
2851.000000	99.437927
2850.000000	99.436759
2849.000000	99.435279
2848.000000	99.433878
2847.000000	99.432720
2846.000000	99.431825
2845.000000	99.431202
2844.000000	99.430808
2843.000000	99.430441
2842.000000	99.429816
2841.000000	99.428848
2840.000000	99.427794
2839.000000	99.427042
2838.000000	99.426702
2837.000000	99.426504
2836.000000	99.426144
2835.000000	99.425600
2834.000000	99.425053
2833.000000	99.424634
2832.000000	99.424311
2831.000000	99.423973
2830.000000	99.423529
2829.000000	99.422940
2828.000000	99.422239
2827.000000	99.421518
2826.000000	99.420877
2825.000000	99.420405
2824.000000	99.420172
2823.000000	99.420158
2822.000000	99.420197
2821.000000	99.420048
2820.000000	99.419610
2819.000000	99.419002
2818.000000	99.418404
2817.000000	99.417895
2816.000000	99.417497
2815.000000	99.417311
2814.000000	99.417455
2813.000000	99.417839
2812.000000	99.418155
2811.000000	99.418161
2810.000000	99.417923
2809.000000	99.417748
2808.000000	99.417914
2807.000000	99.418459
2806.000000	99.419192
2805.000000	99.419869
2804.000000	99.420353
2803.000000	99.420660
2802.000000	99.420905
2801.000000	99.421234
2800.000000	99.421769
2799.000000	99.422531
2798.000000	99.423395
2797.000000	99.424141
2796.000000	99.424636
2795.000000	99.424927
2794.000000	99.425185
2793.000000	99.425535
2792.000000	99.425983
2791.000000	99.426485
2790.000000	99.427021
2789.000000	99.427561
2788.000000	99.428066
2787.000000	99.428552
2786.000000	99.429128
2785.000000	99.429906
2784.000000	99.430860
2783.000000	99.431784
2782.000000	99.432464
2781.000000	99.432863
2780.000000	99.433140
2779.000000	99.433482
2778.000000	99.433943
2777.000000	99.434495
2776.000000	99.435134
2775.000000	99.435915
2774.000000	99.436858
2773.000000	99.437850
2772.000000	99.438664
2771.000000	99.439134
2770.000000	99.439287
2769.000000	99.439334
2768.000000	99.439518
2767.000000	99.439941
2766.000000	99.440570
2765.000000	99.441337
2764.000000	99.442193
2763.000000	99.443068
2762.000000	99.443821
2761.000000	99.444282
2760.000000	99.444396
2759.000000	99.444297
2758.000000	99.444240
2757.000000	99.444426
2756.000000	99.444923
2755.000000	99.445688
2754.000000	99.446621
2753.000000	99.447584
2752.000000	99.448460
2751.000000	99.449180
2750.000000	99.449689
2749.000000	99.449927
2748.000000	99.449915
2747.000000	99.449850
2746.000000	99.449985
2745.000000	99.450393
2744.000000	99.450983
2743.000000	99.451780
2742.000000	99.453006
2741.000000	99.454724
2740.000000	99.456535
2739.000000	99.457786
2738.000000	99.458221
2737.000000	99.458164
2736.000000	99.458182
2735.000000	99.458613
2734.000000	99.459447
2733.000000	99.460501
2732.000000	99.461569
2731.000000	99.462466
2730.000000	99.463085
2729.000000	99.463471
2728.000000	99.463767
2727.000000	99.464072
2726.000000	99.464421
2725.000000	99.464861
2724.000000	99.465473
2723.000000	99.466289
2722.000000	99.467240
2721.000000	99.468168
2720.000000	99.468901
2719.000000	99.469327
2718.000000	99.469461
2717.000000	99.469450
2716.000000	99.469466
2715.000000	99.469574
2714.000000	99.469755
2713.000000	99.470017
2712.000000	99.470422
2711.000000	99.470984
2710.000000	99.471594
2709.000000	99.472072
2708.000000	99.472330
2707.000000	99.472417
2706.000000	99.472470
2705.000000	99.472595
2704.000000	99.472796
2703.000000	99.473026
2702.000000	99.473254
2701.000000	99.473502
2700.000000	99.473797
2699.000000	99.474113
2698.000000	99.474371
2697.000000	99.474502
2696.000000	99.474505
2695.000000	99.474441
2694.000000	99.474392
2693.000000	99.474414
2692.000000	99.474535
2691.000000	99.474762
2690.000000	99.475059
2689.000000	99.475329
2688.000000	99.475448
2687.000000	99.475353
2686.000000	99.475079
2685.000000	99.474734
2684.000000	99.474436
2683.000000	99.474264
2682.000000	99.474233
2681.000000	99.474293
2680.000000	99.474365
2679.000000	99.474399
2678.000000	99.474388
2677.000000	99.474325
2676.000000	99.474204
2675.000000	99.474038
2674.000000	99.473874
2673.000000	99.473771
2672.000000	99.473751
2671.000000	99.473766
2670.000000	99.473718
2669.000000	99.473540
2668.000000	99.473267
2667.000000	99.473007
2666.000000	99.472796
2665.000000	99.472538
2664.000000	99.472119
2663.000000	99.471552
2662.000000	99.470995
2661.000000	99.470608
2660.000000	99.470427
2659.000000	99.470354
2658.000000	99.470265
2657.000000	99.470120
2656.000000	99.469964
2655.000000	99.469826
2654.000000	99.469608
2653.000000	99.469147
2652.000000	99.468383
2651.000000	99.467490
2650.000000	99.466820
2649.000000	99.466641
2648.000000	99.466976
2647.000000	99.467618
2646.000000	99.468261
2645.000000	99.468650
2644.000000	99.468688
2643.000000	99.468450
2642.000000	99.468099
2641.000000	99.467739
2640.000000	99.467414
2639.000000	99.467205
2638.000000	99.467223
2637.000000	99.467487
2636.000000	99.467858
2635.000000	99.468163
2634.000000	99.468314
2633.000000	99.468290
2632.000000	99.468081
2631.000000	99.467707
2630.000000	99.467291
2629.000000	99.467048
2628.000000	99.467153
2627.000000	99.467606
2626.000000	99.468200
2625.000000	99.468633
2624.000000	99.468730
2623.000000	99.468570
2622.000000	99.468419
2621.000000	99.468482
2620.000000	99.468743
2619.000000	99.469094
2618.000000	99.469574
2617.000000	99.470333
2616.000000	99.471372
2615.000000	99.472392
2614.000000	99.472975
2613.000000	99.472917
2612.000000	99.472335
2611.000000	99.471548
2610.000000	99.470930
2609.000000	99.470791
2608.000000	99.471284
2607.000000	99.472334
2606.000000	99.473637
2605.000000	99.474779
2604.000000	99.475433
2603.000000	99.475438
2602.000000	99.474774
2601.000000	99.473613
2600.000000	99.472347
2599.000000	99.471459
2598.000000	99.471289
2597.000000	99.471806
2596.000000	99.472612
2595.000000	99.473225
2594.000000	99.473419
2593.000000	99.473289
2592.000000	99.473057
2591.000000	99.472810
2590.000000	99.472471
2589.000000	99.472033
2588.000000	99.471764
2587.000000	99.472033
2586.000000	99.472943
2585.000000	99.474209
2584.000000	99.475360
2583.000000	99.476062
2582.000000	99.476272
2581.000000	99.476166
2580.000000	99.475973
2579.000000	99.475795
2578.000000	99.475606
2577.000000	99.475393
2576.000000	99.475253
2575.000000	99.475327
2574.000000	99.475644
2573.000000	99.476081
2572.000000	99.476456
2571.000000	99.476655
2570.000000	99.476670
2569.000000	99.476572
2568.000000	99.476468
2567.000000	99.476424
2566.000000	99.476420
2565.000000	99.476402
2564.000000	99.476395
2563.000000	99.476503
2562.000000	99.476779
2561.000000	99.477154
2560.000000	99.477491
2559.000000	99.477694
2558.000000	99.477758
2557.000000	99.477764
2556.000000	99.477829
2555.000000	99.478025
2554.000000	99.478344
2553.000000	99.478702
2552.000000	99.478986
2551.000000	99.479137
2550.000000	99.479159
2549.000000	99.479083
2548.000000	99.478950
2547.000000	99.478834
2546.000000	99.478819
2545.000000	99.478942
2544.000000	99.479183
2543.000000	99.479484
2542.000000	99.479782
2541.000000	99.480002
2540.000000	99.480053
2539.000000	99.479870
2538.000000	99.479498
2537.000000	99.479146
2536.000000	99.479074
2535.000000	99.479404
2534.000000	99.480037
2533.000000	99.480730
2532.000000	99.481293
2531.000000	99.481725
2530.000000	99.482164
2529.000000	99.482689
2528.000000	99.483208
2527.000000	99.483576
2526.000000	99.483793
2525.000000	99.484023
2524.000000	99.484479
2523.000000	99.485267
2522.000000	99.486287
2521.000000	99.487202
2520.000000	99.487657
2519.000000	99.487624
2518.000000	99.487494
2517.000000	99.487679
2516.000000	99.488204
2515.000000	99.488793
2514.000000	99.489316
2513.000000	99.489959
2512.000000	99.490934
2511.000000	99.492182
2510.000000	99.493355
2509.000000	99.494026
2508.000000	99.493978
2507.000000	99.493463
2506.000000	99.493113
2505.000000	99.493432
2504.000000	99.494379
2503.000000	99.495577
2502.000000	99.496923
2501.000000	99.498648
2500.000000	99.500726
2499.000000	99.502504
2498.000000	99.503187
2497.000000	99.502583
2496.000000	99.501269
2495.000000	99.500147
2494.000000	99.499828
2493.000000	99.500366
2492.000000	99.501357
2491.000000	99.502249
2490.000000	99.502762
2489.000000	99.502984
2488.000000	99.503068
2487.000000	99.502935
2486.000000	99.502411
2485.000000	99.501595
2484.000000	99.500938
2483.000000	99.500903
2482.000000	99.501613
2481.000000	99.502855
2480.000000	99.504270
2479.000000	99.505504
2478.000000	99.506291
2477.000000	99.506567
2476.000000	99.506521
2475.000000	99.506477
2474.000000	99.506635
2473.000000	99.506962
2472.000000	99.507332
2471.000000	99.507716
2470.000000	99.508188
2469.000000	99.508779
2468.000000	99.509405
2467.000000	99.509945
2466.000000	99.510345
2465.000000	99.510646
2464.000000	99.510931
2463.000000	99.511277
2462.000000	99.511708
2461.000000	99.512190
2460.000000	99.512673
2459.000000	99.513114
2458.000000	99.513510
2457.000000	99.513890
2456.000000	99.514283
2455.000000	99.514704
2454.000000	99.515149
2453.000000	99.515608
2452.000000	99.516066
2451.000000	99.516514
2450.000000	99.516947
2449.000000	99.517372
2448.000000	99.517798
2447.000000	99.518236
2446.000000	99.518692
2445.000000	99.519169
2444.000000	99.519665
2443.000000	99.520174
2442.000000	99.520686
2441.000000	99.521193
2440.000000	99.521691
2439.000000	99.522180
2438.000000	99.522664
2437.000000	99.523143
2436.000000	99.523598
2435.000000	99.524003
2434.000000	99.524338
2433.000000	99.524604
2432.000000	99.524843
2431.000000	99.525122
2430.000000	99.525486
2429.000000	99.525912
2428.000000	99.526332
2427.000000	99.526702
2426.000000	99.527038
2425.000000	99.527360
2424.000000	99.527647
2423.000000	99.527844
2422.000000	99.527934
2421.000000	99.527991
2420.000000	99.528163
2419.000000	99.528570
2418.000000	99.529191
2417.000000	99.529844
2416.000000	99.530320
2415.000000	99.530524
2414.000000	99.530490
2413.000000	99.530323
2412.000000	99.530109
2411.000000	99.529910
2410.000000	99.529809
2409.000000	99.529911
2408.000000	99.530294
2407.000000	99.530924
2406.000000	99.531614
2405.000000	99.532099
2404.000000	99.532224
2403.000000	99.532042
2402.000000	99.531730
2401.000000	99.531409
2400.000000	99.531106
2399.000000	99.530852
2398.000000	99.530694
2397.000000	99.530644
2396.000000	99.530631
2395.000000	99.530539
2394.000000	99.530304
2393.000000	99.529957
2392.000000	99.529602
2391.000000	99.529348
2390.000000	99.529236
2389.000000	99.529239
2388.000000	99.529296
2387.000000	99.529338
2386.000000	99.529313
2385.000000	99.529192
2384.000000	99.528989
2383.000000	99.528757
2382.000000	99.528560
2381.000000	99.528424
2380.000000	99.528327
2379.000000	99.528215
2378.000000	99.528038
2377.000000	99.527789
2376.000000	99.527515
2375.000000	99.527297
2374.000000	99.527174
2373.000000	99.527115
2372.000000	99.527037
2371.000000	99.526884
2370.000000	99.526672
2369.000000	99.526482
2368.000000	99.526399
2367.000000	99.526447
2366.000000	99.526594
2365.000000	99.526780
2364.000000	99.526947
2363.000000	99.527047
2362.000000	99.527028
2361.000000	99.526855
2360.000000	99.526534
2359.000000	99.526161
2358.000000	99.525896
2357.000000	99.525845
2356.000000	99.526005
2355.000000	99.526262
2354.000000	99.526499
2353.000000	99.526664
2352.000000	99.526773
2351.000000	99.526863
2350.000000	99.526933
2349.000000	99.526952
2348.000000	99.526884
2347.000000	99.526783
2346.000000	99.526820
2345.000000	99.527146
2344.000000	99.527677
2343.000000	99.528050
2342.000000	99.528013
2341.000000	99.527616
2340.000000	99.527091
2339.000000	99.526608
2338.000000	99.526202
2337.000000	99.525846
2336.000000	99.525487
2335.000000	99.525086
2334.000000	99.524722
2333.000000	99.524564
2332.000000	99.524694
2331.000000	99.524919
2330.000000	99.524907
2329.000000	99.524549
2328.000000	99.523989
2327.000000	99.523429
2326.000000	99.522895
2325.000000	99.522341
2324.000000	99.521804
2323.000000	99.521361
2322.000000	99.521073
2321.000000	99.520937
2320.000000	99.520915
2319.000000	99.520888
2318.000000	99.520658
2317.000000	99.520077
2316.000000	99.519177
2315.000000	99.518187
2314.000000	99.517385
2313.000000	99.516886
2312.000000	99.516604
2311.000000	99.516317
2310.000000	99.515836
2309.000000	99.515142
2308.000000	99.514340
2307.000000	99.513550
2306.000000	99.512866
2305.000000	99.512366
2304.000000	99.512045
2303.000000	99.511734
2302.000000	99.511207
2301.000000	99.510469
2300.000000	99.509782
2299.000000	99.509362
2298.000000	99.509094
2297.000000	99.508669
2296.000000	99.507947
2295.000000	99.507160
2294.000000	99.506678
2293.000000	99.506623
2292.000000	99.506770
2291.000000	99.506814
2290.000000	99.506712
2289.000000	99.506670
2288.000000	99.506801
2287.000000	99.506871
2286.000000	99.506539
2285.000000	99.505789
2284.000000	99.504960
2283.000000	99.504361
2282.000000	99.503967
2281.000000	99.503552
2280.000000	99.502987
2279.000000	99.502309
2278.000000	99.501609
2277.000000	99.500989
2276.000000	99.500554
2275.000000	99.500303
2274.000000	99.500002
2273.000000	99.499317
2272.000000	99.498116
2271.000000	99.496620
2270.000000	99.495295
2269.000000	99.494513
2268.000000	99.494357
2267.000000	99.494613
2266.000000	99.494858
2265.000000	99.494722
2264.000000	99.494098
2263.000000	99.493182
2262.000000	99.492381
2261.000000	99.492075
2260.000000	99.492313
2259.000000	99.492660
2258.000000	99.492482
2257.000000	99.491547
2256.000000	99.490260
2255.000000	99.489242
2254.000000	99.488683
2253.000000	99.488334
2252.000000	99.488049
2251.000000	99.488034
2250.000000	99.488407
2249.000000	99.488887
2248.000000	99.489068
2247.000000	99.488850
2246.000000	99.488417
2245.000000	99.487889
2244.000000	99.487250
2243.000000	99.486549
2242.000000	99.485924
2241.000000	99.485364
2240.000000	99.484578
2239.000000	99.483261
2238.000000	99.481518
2237.000000	99.480003
2236.000000	99.479475
2235.000000	99.480158
2234.000000	99.481499
2233.000000	99.482659
2232.000000	99.483371
2231.000000	99.484148
2230.000000	99.485586
2229.000000	99.487539
2228.000000	99.489081
2227.000000	99.489283
2226.000000	99.487893
2225.000000	99.485451
2224.000000	99.482904
2223.000000	99.481025
2222.000000	99.480073
2221.000000	99.479773
2220.000000	99.479558
2219.000000	99.478970
2218.000000	99.477995
2217.000000	99.477115
2216.000000	99.476985
2215.000000	99.477917
2214.000000	99.479611
2213.000000	99.481377
2212.000000	99.482617
2211.000000	99.483113
2210.000000	99.482989
2209.000000	99.482509
2208.000000	99.481920
2207.000000	99.481399
2206.000000	99.481095
2205.000000	99.481121
2204.000000	99.481429
2203.000000	99.481763
2202.000000	99.481876
2201.000000	99.481848
2200.000000	99.482051
2199.000000	99.482742
2198.000000	99.483763
2197.000000	99.484690
2196.000000	99.485203
2195.000000	99.485248
2194.000000	99.484946
2193.000000	99.484495
2192.000000	99.484105
2191.000000	99.483915
2190.000000	99.483950
2189.000000	99.484160
2188.000000	99.484452
2187.000000	99.484677
2186.000000	99.484693
2185.000000	99.484535
2184.000000	99.484454
2183.000000	99.484678
2182.000000	99.485169
2181.000000	99.485701
2180.000000	99.486166
2179.000000	99.486660
2178.000000	99.487188
2177.000000	99.487479
2176.000000	99.487296
2175.000000	99.486759
2174.000000	99.486309
2173.000000	99.486282
2172.000000	99.486666
2171.000000	99.487197
2170.000000	99.487664
2169.000000	99.488070
2168.000000	99.488471
2167.000000	99.488785
2166.000000	99.488866
2165.000000	99.488735
2164.000000	99.488613
2163.000000	99.488672
2162.000000	99.488817
2161.000000	99.488856
2160.000000	99.488839
2159.000000	99.489045
2158.000000	99.489572
2157.000000	99.490104
2156.000000	99.490190
2155.000000	99.489673
2154.000000	99.488799
2153.000000	99.488048
2152.000000	99.487939
2151.000000	99.488776
2150.000000	99.490427
2149.000000	99.492335
2148.000000	99.493936
2147.000000	99.495048
2146.000000	99.495804
2145.000000	99.496341
2144.000000	99.496710
2143.000000	99.497004
2142.000000	99.497433
2141.000000	99.498230
2140.000000	99.499463
2139.000000	99.500852
2138.000000	99.501822
2137.000000	99.501982
2136.000000	99.501621
2135.000000	99.501504
2134.000000	99.502082
2133.000000	99.503065
2132.000000	99.503890
2131.000000	99.504356
2130.000000	99.504660
2129.000000	99.505024
2128.000000	99.505468
2127.000000	99.505859
2126.000000	99.506010
2125.000000	99.505781
2124.000000	99.505211
2123.000000	99.504515
2122.000000	99.503932
2121.000000	99.503610
2120.000000	99.503614
2119.000000	99.503898
2118.000000	99.504290
2117.000000	99.504657
2116.000000	99.505060
2115.000000	99.505559
2114.000000	99.505909
2113.000000	99.505722
2112.000000	99.505028
2111.000000	99.504439
2110.000000	99.504590
2109.000000	99.505550
2108.000000	99.506899
2107.000000	99.508214
2106.000000	99.509335
2105.000000	99.510140
2104.000000	99.510447
2103.000000	99.510215
2102.000000	99.509719
2101.000000	99.509409
2100.000000	99.509625
2099.000000	99.510484
2098.000000	99.511869
2097.000000	99.513432
2096.000000	99.514703
2095.000000	99.515347
2094.000000	99.515371
2093.000000	99.515145
2092.000000	99.515137
2091.000000	99.515510
2090.000000	99.515971
2089.000000	99.516128
2088.000000	99.516006
2087.000000	99.516075
2086.000000	99.516719
2085.000000	99.517847
2084.000000	99.519104
2083.000000	99.520294
2082.000000	99.521339
2081.000000	99.522027
2080.000000	99.522168
2079.000000	99.521971
2078.000000	99.521966
2077.000000	99.522451
2076.000000	99.523317
2075.000000	99.524457
2074.000000	99.526000
2073.000000	99.527975
2072.000000	99.529956
2071.000000	99.531324
2070.000000	99.531776
2069.000000	99.531441
2068.000000	99.530743
2067.000000	99.530320
2066.000000	99.530784
2065.000000	99.532101
2064.000000	99.533289
2063.000000	99.533248
2062.000000	99.531915
2061.000000	99.530370
2060.000000	99.529716
2059.000000	99.529962
2058.000000	99.530274
2057.000000	99.530050
2056.000000	99.529506
2055.000000	99.529213
2054.000000	99.529332
2053.000000	99.529462
2052.000000	99.529160
2051.000000	99.528470
2050.000000	99.527896
2049.000000	99.527883
2048.000000	99.528342
2047.000000	99.528671
2046.000000	99.528311
2045.000000	99.527254
2044.000000	99.525995
2043.000000	99.524986
2042.000000	99.524189
2041.000000	99.523255
2040.000000	99.522062
2039.000000	99.520913
2038.000000	99.520196
2037.000000	99.519994
2036.000000	99.520108
2035.000000	99.520282
2034.000000	99.520287
2033.000000	99.519848
2032.000000	99.518764
2031.000000	99.517136
2030.000000	99.515411
2029.000000	99.514044
2028.000000	99.513122
2027.000000	99.512420
2026.000000	99.511700
2025.000000	99.510941
2024.000000	99.510288
2023.000000	99.509825
2022.000000	99.509445
2021.000000	99.508942
2020.000000	99.508198
2019.000000	99.507294
2018.000000	99.506398
2017.000000	99.505515
2016.000000	99.504465
2015.000000	99.503182
2014.000000	99.501944
2013.000000	99.501118
2012.000000	99.500706
2011.000000	99.500331
2010.000000	99.499755
2009.000000	99.499196
2008.000000	99.498992
2007.000000	99.499092
2006.000000	99.499071
2005.000000	99.498570
2004.000000	99.497521
2003.000000	99.495980
2002.000000	99.494075
2001.000000	99.492117
2000.000000	99.490528
1999.000000	99.489512
1998.000000	99.489015
1997.000000	99.489006
1996.000000	99.489470
1995.000000	99.490054
1994.000000	99.490120
1993.000000	99.489387
1992.000000	99.488305
1991.000000	99.487515
1990.000000	99.487128
1989.000000	99.486831
1988.000000	99.486469
1987.000000	99.486163
1986.000000	99.485981
1985.000000	99.485771
1984.000000	99.485382
1983.000000	99.484828
1982.000000	99.484288
1981.000000	99.484136
1980.000000	99.484817
1979.000000	99.486427
1978.000000	99.488418
1977.000000	99.489925
1976.000000	99.490474
1975.000000	99.490202
1974.000000	99.489413
1973.000000	99.488201
1972.000000	99.486710
1971.000000	99.485509
1970.000000	99.485292
1969.000000	99.486149
1968.000000	99.487335
1967.000000	99.487926
1966.000000	99.487685
1965.000000	99.487053
1964.000000	99.486495
1963.000000	99.486086
1962.000000	99.485671
1961.000000	99.485099
1960.000000	99.484269
1959.000000	99.483160
1958.000000	99.481969
1957.000000	99.481105
1956.000000	99.480842
1955.000000	99.481035
1954.000000	99.481207
1953.000000	99.480958
1952.000000	99.480300
1951.000000	99.479549
1950.000000	99.478964
1949.000000	99.478557
1948.000000	99.478222
1947.000000	99.477916
1946.000000	99.477630
1945.000000	99.477303
1944.000000	99.476836
1943.000000	99.476161
1942.000000	99.475255
1941.000000	99.474120
1940.000000	99.472831
1939.000000	99.471565
1938.000000	99.470512
1937.000000	99.469739
1936.000000	99.469136
1935.000000	99.468484
1934.000000	99.467632
1933.000000	99.466561
1932.000000	99.465367
1931.000000	99.464168
1930.000000	99.463034
1929.000000	99.461952
1928.000000	99.460884
1927.000000	99.459798
1926.000000	99.458643
1925.000000	99.457353
1924.000000	99.455917
1923.000000	99.454472
1922.000000	99.453244
1921.000000	99.452334
1920.000000	99.451567
1919.000000	99.450539
1918.000000	99.448918
1917.000000	99.446756
1916.000000	99.444507
1915.000000	99.442609
1914.000000	99.441208
1913.000000	99.440189
1912.000000	99.439241
1911.000000	99.438017
1910.000000	99.436411
1909.000000	99.434735
1908.000000	99.433429
1907.000000	99.432448
1906.000000	99.431198
1905.000000	99.429303
1904.000000	99.427150
1903.000000	99.425396
1902.000000	99.424099
1901.000000	99.422729
1900.000000	99.420868
1899.000000	99.418491
1898.000000	99.415713
1897.000000	99.412823
1896.000000	99.410521
1895.000000	99.409393
1894.000000	99.408950
1893.000000	99.407980
1892.000000	99.406179
1891.000000	99.404700
1890.000000	99.404792
1889.000000	99.406102
1888.000000	99.406829
1887.000000	99.405599
1886.000000	99.402462
1885.000000	99.398590
1884.000000	99.395568
1883.000000	99.394385
1882.000000	99.394762
1881.000000	99.395393
1880.000000	99.395106
1879.000000	99.393968
1878.000000	99.393108
1877.000000	99.393415
1876.000000	99.394638
1875.000000	99.395776
1874.000000	99.396206
1873.000000	99.396216
1872.000000	99.396392
1871.000000	99.396762
1870.000000	99.396769
1869.000000	99.396190
1868.000000	99.395746
1867.000000	99.396011
1866.000000	99.396485
1865.000000	99.396577
1864.000000	99.396548
1863.000000	99.397026
1862.000000	99.398117
1861.000000	99.399357
1860.000000	99.400554
1859.000000	99.402095
1858.000000	99.404340
1857.000000	99.407162
1856.000000	99.409942
1855.000000	99.411576
1854.000000	99.411234
1853.000000	99.409577
1852.000000	99.408713
1851.000000	99.410292
1850.000000	99.413837
1849.000000	99.417532
1848.000000	99.420406
1847.000000	99.422999
1846.000000	99.425905
1845.000000	99.428599
1844.000000	99.430443
1843.000000	99.431808
1842.000000	99.433240
1841.000000	99.434395
1840.000000	99.434463
1839.000000	99.433398
1838.000000	99.432176
1837.000000	99.431552
1836.000000	99.431057
1835.000000	99.429939
1834.000000	99.428505
1833.000000	99.427583
1832.000000	99.427255
1831.000000	99.427205
1830.000000	99.427870
1829.000000	99.429833
1828.000000	99.432459
1827.000000	99.434641
1826.000000	99.435975
1825.000000	99.436791
1824.000000	99.437430
1823.000000	99.437743
1822.000000	99.437472
1821.000000	99.436802
1820.000000	99.436405
1819.000000	99.436765
1818.000000	99.437351
1817.000000	99.437049
1816.000000	99.435600
1815.000000	99.434041
1814.000000	99.433407
1813.000000	99.433590
1812.000000	99.433871
1811.000000	99.433943
1810.000000	99.433762
1809.000000	99.433109
1808.000000	99.432228
1807.000000	99.431953
1806.000000	99.432707
1805.000000	99.433995
1804.000000	99.434822
1803.000000	99.434443
1802.000000	99.432818
1801.000000	99.430773
1800.000000	99.429786
1799.000000	99.430780
1798.000000	99.433228
1797.000000	99.435808
1796.000000	99.437625
1795.000000	99.438476
1794.000000	99.438531
1793.000000	99.438455
1792.000000	99.439497
1791.000000	99.442102
1790.000000	99.444960
1789.000000	99.446783
1788.000000	99.447834
1787.000000	99.449072
1786.000000	99.450631
1785.000000	99.451673
1784.000000	99.451746
1783.000000	99.451471
1782.000000	99.451598
1781.000000	99.452125
1780.000000	99.452718
1779.000000	99.453218
1778.000000	99.453734
1777.000000	99.454614
1776.000000	99.456384
1775.000000	99.459409
1774.000000	99.463409
1773.000000	99.467176
1772.000000	99.469419
1771.000000	99.470276
1770.000000	99.470864
1769.000000	99.471673
1768.000000	99.472611
1767.000000	99.473914
1766.000000	99.475830
1765.000000	99.477935
1764.000000	99.479298
1763.000000	99.479350
1762.000000	99.478646
1761.000000	99.478370
1760.000000	99.479078
1759.000000	99.480566
1758.000000	99.482430
1757.000000	99.484358
1756.000000	99.486277
1755.000000	99.488512
1754.000000	99.491473
1753.000000	99.494926
1752.000000	99.497714
1751.000000	99.498624
1750.000000	99.497929
1749.000000	99.497192
1748.000000	99.497233
1747.000000	99.497692
1746.000000	99.498003
1745.000000	99.497897
1744.000000	99.497546
1743.000000	99.497497
1742.000000	99.498031
1741.000000	99.498419
1740.000000	99.497778
1739.000000	99.496792
1738.000000	99.497332
1737.000000	99.499889
1736.000000	99.503077
1735.000000	99.504279
1734.000000	99.501617
1733.000000	99.496389
1732.000000	99.491354
1731.000000	99.487646
1730.000000	99.485466
1729.000000	99.485163
1728.000000	99.486226
1727.000000	99.487338
1726.000000	99.487253
1725.000000	99.485579
1724.000000	99.482669
1723.000000	99.479191
1722.000000	99.475761
1721.000000	99.472828
1720.000000	99.470689
1719.000000	99.469639
1718.000000	99.469559
1717.000000	99.469143
1716.000000	99.468000
1715.000000	99.467347
1714.000000	99.467023
1713.000000	99.465654
1712.000000	99.462729
1711.000000	99.458828
1710.000000	99.454662
1709.000000	99.450277
1708.000000	99.445340
1707.000000	99.439831
1706.000000	99.434341
1705.000000	99.429783
1704.000000	99.426888
1703.000000	99.425571
1702.000000	99.424901
1701.000000	99.422696
1700.000000	99.417751
1699.000000	99.412112
1698.000000	99.407608
1697.000000	99.403447
1696.000000	99.398682
1695.000000	99.393940
1694.000000	99.390104
1693.000000	99.387007
1692.000000	99.384069
1691.000000	99.380923
1690.000000	99.377459
1689.000000	99.373659
1688.000000	99.369560
1687.000000	99.365257
1686.000000	99.360776
1685.000000	99.356055
1684.000000	99.351617
1683.000000	99.348108
1682.000000	99.345199
1681.000000	99.342249
1680.000000	99.338702
1679.000000	99.334515
1678.000000	99.329934
1677.000000	99.325082
1676.000000	99.319848
1675.000000	99.314787
1674.000000	99.310991
1673.000000	99.308568
1672.000000	99.306521
1671.000000	99.303821
1670.000000	99.300292
1669.000000	99.296565
1668.000000	99.292662
1667.000000	99.287950
1666.000000	99.282554
1665.000000	99.277382
1664.000000	99.273603
1663.000000	99.272123
1662.000000	99.272249
1661.000000	99.271753
1660.000000	99.269095
1659.000000	99.264418
1658.000000	99.258572
1657.000000	99.252635
1656.000000	99.246682
1655.000000	99.240501
1654.000000	99.235502
1653.000000	99.236162
1652.000000	99.240379
1651.000000	99.241959
1650.000000	99.240959
1649.000000	99.236779
1648.000000	99.229419
1647.000000	99.220528
1646.000000	99.213805
1645.000000	99.210313
1644.000000	99.209226
1643.000000	99.209851
1642.000000	99.212039
1641.000000	99.214698
1640.000000	99.216521
1639.000000	99.216985
1638.000000	99.216705
1637.000000	99.216871
1636.000000	99.218423
1635.000000	99.220269
1634.000000	99.220866
1633.000000	99.220726
1632.000000	99.220237
1631.000000	99.219333
1630.000000	99.218642
1629.000000	99.220043
1628.000000	99.224530
1627.000000	99.230268
1626.000000	99.234655
1625.000000	99.237136
1624.000000	99.238846
1623.000000	99.240658
1622.000000	99.242622
1621.000000	99.244872
1620.000000	99.247478
1619.000000	99.250443
1618.000000	99.254887
1617.000000	99.263035
1616.000000	99.273804
1615.000000	99.281621
1614.000000	99.284289
1613.000000	99.285021
1612.000000	99.287705
1611.000000	99.293216
1610.000000	99.299048
1609.000000	99.302815
1608.000000	99.304574
1607.000000	99.305708
1606.000000	99.307837
1605.000000	99.312057
1604.000000	99.317755
1603.000000	99.322530
1602.000000	99.324761
1601.000000	99.325814
1600.000000	99.328169
1599.000000	99.332295
1598.000000	99.336648
1597.000000	99.339957
1596.000000	99.342458
1595.000000	99.345012
1594.000000	99.347996
1593.000000	99.351376
1592.000000	99.354959
1591.000000	99.358270
1590.000000	99.360844
1589.000000	99.362768
1588.000000	99.364463
1587.000000	99.366062
1586.000000	99.367655
1585.000000	99.369554
1584.000000	99.371733
1583.000000	99.373591
1582.000000	99.374761
1581.000000	99.375852
1580.000000	99.377697
1579.000000	99.380206
1578.000000	99.382471
1577.000000	99.383849
1576.000000	99.384646
1575.000000	99.385422
1574.000000	99.386547
1573.000000	99.388030
1572.000000	99.389305
1571.000000	99.389925
1570.000000	99.390633
1569.000000	99.393117
1568.000000	99.397337
1567.000000	99.401356
1566.000000	99.403643
1565.000000	99.404197
1564.000000	99.403774
1563.000000	99.403009
1562.000000	99.402096
1561.000000	99.401440
1560.000000	99.401991
1559.000000	99.403893
1558.000000	99.404414
1557.000000	99.403238
1556.000000	99.402705
1555.000000	99.403077
1554.000000	99.404731
1553.000000	99.406776
1552.000000	99.408469
1551.000000	99.409172
1550.000000	99.409050
1549.000000	99.408733
1548.000000	99.408781
1547.000000	99.409337
1546.000000	99.410174
1545.000000	99.410755
1544.000000	99.410746
1543.000000	99.410393
1542.000000	99.410272
1541.000000	99.410560
1540.000000	99.411110
1539.000000	99.411448
1538.000000	99.411165
1537.000000	99.410350
1536.000000	99.408595
1535.000000	99.405704
1534.000000	99.402703
1533.000000	99.401664
1532.000000	99.402870
1531.000000	99.404614
1530.000000	99.405347
1529.000000	99.404841
1528.000000	99.403843
1527.000000	99.403126
1526.000000	99.402885
1525.000000	99.403134
1524.000000	99.404424
1523.000000	99.407386
1522.000000	99.411299
1521.000000	99.413790
1520.000000	99.413865
1519.000000	99.413240
1518.000000	99.413702
1517.000000	99.415415
1516.000000	99.417120
1515.000000	99.417661
1514.000000	99.417373
1513.000000	99.417228
1512.000000	99.417753
1511.000000	99.418872
1510.000000	99.420076
1509.000000	99.420810
1508.000000	99.420871
1507.000000	99.421635
1506.000000	99.424177
1505.000000	99.427324
1504.000000	99.430324
1503.000000	99.433042
1502.000000	99.435251
1501.000000	99.436587
1500.000000	99.437246
1499.000000	99.438248
1498.000000	99.440748
1497.000000	99.444166
1496.000000	99.446342
1495.000000	99.446561
1494.000000	99.446197
1493.000000	99.446638
1492.000000	99.448124
1491.000000	99.450062
1490.000000	99.451756
1489.000000	99.452820
1488.000000	99.453537
1487.000000	99.454504
1486.000000	99.455662
1485.000000	99.456836
1484.000000	99.458200
1483.000000	99.459807
1482.000000	99.461159
1481.000000	99.461552
1480.000000	99.460941
1479.000000	99.460042
1478.000000	99.459379
1477.000000	99.458947
1476.000000	99.458948
1475.000000	99.460138
1474.000000	99.462965
1473.000000	99.466952
1472.000000	99.471203
1471.000000	99.475050
1470.000000	99.477687
1469.000000	99.478292
1468.000000	99.477013
1467.000000	99.475389
1466.000000	99.475145
1465.000000	99.476244
1464.000000	99.477552
1463.000000	99.479167
1462.000000	99.481948
1461.000000	99.485647
1460.000000	99.488929
1459.000000	99.490653
1458.000000	99.491173
1457.000000	99.491616
1456.000000	99.491719
1455.000000	99.491657
1454.000000	99.492318
1453.000000	99.492502
1452.000000	99.490882
1451.000000	99.487521
1450.000000	99.483757
1449.000000	99.480445
1448.000000	99.477974
1447.000000	99.476935
1446.000000	99.477047
1445.000000	99.476353
1444.000000	99.473612
1443.000000	99.469905
1442.000000	99.467381
1441.000000	99.467042
1440.000000	99.468366
1439.000000	99.470522
1438.000000	99.472715
1437.000000	99.473281
1436.000000	99.470840
1435.000000	99.467296
1434.000000	99.465662
1433.000000	99.466107
1432.000000	99.466985
1431.000000	99.467206
1430.000000	99.467160
1429.000000	99.467026
1428.000000	99.465478
1427.000000	99.461830
1426.000000	99.457674
1425.000000	99.455636
1424.000000	99.456817
1423.000000	99.459826
1422.000000	99.462784
1421.000000	99.464806
1420.000000	99.465283
1419.000000	99.464734
1418.000000	99.465500
1417.000000	99.468246
1416.000000	99.471093
1415.000000	99.472456
1414.000000	99.472507
1413.000000	99.472551
1412.000000	99.473682
1411.000000	99.475980
1410.000000	99.478915
1409.000000	99.481563
1408.000000	99.482955
1407.000000	99.482794
1406.000000	99.481726
1405.000000	99.480840
1404.000000	99.480846
1403.000000	99.482093
1402.000000	99.484956
1401.000000	99.489566
1400.000000	99.495677
1399.000000	99.502429
1398.000000	99.508449
1397.000000	99.512560
1396.000000	99.514419
1395.000000	99.514804
1394.000000	99.515050
1393.000000	99.515381
1392.000000	99.515143
1391.000000	99.515034
1390.000000	99.516671
1389.000000	99.519957
1388.000000	99.522336
1387.000000	99.521752
1386.000000	99.519617
1385.000000	99.518822
1384.000000	99.520362
1383.000000	99.523670
1382.000000	99.528298
1381.000000	99.533754
1380.000000	99.538461
1379.000000	99.540220
1378.000000	99.538240
1377.000000	99.533936
1376.000000	99.529334
1375.000000	99.525502
1374.000000	99.522946
1373.000000	99.522255
1372.000000	99.523374
1371.000000	99.524830
1370.000000	99.524556
1369.000000	99.522033
1368.000000	99.519166
1367.000000	99.518319
1366.000000	99.519623
1365.000000	99.520931
1364.000000	99.520477
1363.000000	99.519174
1362.000000	99.519325
1361.000000	99.521289
1360.000000	99.523201
1359.000000	99.523595
1358.000000	99.522795
1357.000000	99.522000
1356.000000	99.521895
1355.000000	99.522499
1354.000000	99.523741
1353.000000	99.525484
1352.000000	99.527289
1351.000000	99.528458
1350.000000	99.528469
1349.000000	99.527630
1348.000000	99.526926
1347.000000	99.527223
1346.000000	99.528709
1345.000000	99.530922
1344.000000	99.533121
1343.000000	99.534679
1342.000000	99.535170
1341.000000	99.534328
1340.000000	99.532175
1339.000000	99.529338
1338.000000	99.527100
1337.000000	99.526640
1336.000000	99.528182
1335.000000	99.530856
1334.000000	99.533244
1333.000000	99.534269
1332.000000	99.533839
1331.000000	99.532747
1330.000000	99.531908
1329.000000	99.531645
1328.000000	99.531693
1327.000000	99.531708
1326.000000	99.531631
1325.000000	99.531595
1324.000000	99.531511
1323.000000	99.531281
1322.000000	99.531373
1321.000000	99.532536
1320.000000	99.534603
1319.000000	99.535981
1318.000000	99.535003
1317.000000	99.531652
1316.000000	99.527668
1315.000000	99.525064
1314.000000	99.524752
1313.000000	99.526274
1312.000000	99.528358
1311.000000	99.529833
1310.000000	99.530402
1309.000000	99.530762
1308.000000	99.531885
1307.000000	99.533851
1306.000000	99.535516
1305.000000	99.535700
1304.000000	99.534394
1303.000000	99.532592
1302.000000	99.531125
1301.000000	99.530141
1300.000000	99.529658
1299.000000	99.529863
1298.000000	99.530493
1297.000000	99.530518
1296.000000	99.529035
1295.000000	99.526192
1294.000000	99.522868
1293.000000	99.519733
1292.000000	99.517157
1291.000000	99.515807
1290.000000	99.516460
1289.000000	99.519020
1288.000000	99.522160
1287.000000	99.524127
1286.000000	99.523818
1285.000000	99.521224
1284.000000	99.517296
1283.000000	99.513312
1282.000000	99.509847
1281.000000	99.506498
1280.000000	99.503139
1279.000000	99.501028
1278.000000	99.501788
1277.000000	99.505232
1276.000000	99.508863
1275.000000	99.509783
1274.000000	99.507081
1273.000000	99.502640
1272.000000	99.499896
1271.000000	99.501170
1270.000000	99.505566
1269.000000	99.509903
1268.000000	99.512057
1267.000000	99.512501
1266.000000	99.512187
1265.000000	99.510342
1264.000000	99.505954
1263.000000	99.500491
1262.000000	99.497038
1261.000000	99.496918
1260.000000	99.498813
1259.000000	99.500873
1258.000000	99.502037
1257.000000	99.501443
1256.000000	99.498458
1255.000000	99.493537
1254.000000	99.487632
1253.000000	99.480853
1252.000000	99.473238
1251.000000	99.466245
1250.000000	99.461272
1249.000000	99.456960
1248.000000	99.450598
1247.000000	99.442518
1246.000000	99.436574
1245.000000	99.435358
1244.000000	99.437155
1243.000000	99.438401
1242.000000	99.436763
1241.000000	99.430848
1240.000000	99.419640
1239.000000	99.404444
1238.000000	99.389699
1237.000000	99.379693
1236.000000	99.375173
1235.000000	99.374026
1234.000000	99.373631
1233.000000	99.371338
1232.000000	99.364415
1231.000000	99.351832
1230.000000	99.335723
1229.000000	99.319705
1228.000000	99.305986
1227.000000	99.294428
1226.000000	99.282942
1225.000000	99.267820
1224.000000	99.245285
1223.000000	99.214580
1222.000000	99.179206
1221.000000	99.143976
1220.000000	99.111083
1219.000000	99.079511
1218.000000	99.047363
1217.000000	99.014029
1216.000000	98.980642
1215.000000	98.948933
1214.000000	98.919136
1213.000000	98.888865
1212.000000	98.854781
1211.000000	98.815500
1210.000000	98.772305
1209.000000	98.727606
1208.000000	98.684018
1207.000000	98.644351
1206.000000	98.610324
1205.000000	98.580925
1204.000000	98.553384
1203.000000	98.525633
1202.000000	98.496539
1201.000000	98.464437
1200.000000	98.427600
1199.000000	98.386515
1198.000000	98.344162
1197.000000	98.303653
1196.000000	98.266666
1195.000000	98.233711
1194.000000	98.203932
1193.000000	98.174480
1192.000000	98.141794
1191.000000	98.104108
1190.000000	98.062061
1189.000000	98.017210
1188.000000	97.971247
1187.000000	97.926274
1186.000000	97.883971
1185.000000	97.844106
1184.000000	97.804813
1183.000000	97.763941
1182.000000	97.719180
1181.000000	97.668267
1180.000000	97.611521
1179.000000	97.553775
1178.000000	97.500818
1177.000000	97.452925
1176.000000	97.403724
1175.000000	97.346462
1174.000000	97.280488
1173.000000	97.211135
1172.000000	97.144321
1171.000000	97.082192
1170.000000	97.023379
1169.000000	96.966470
1168.000000	96.912566
1167.000000	96.864238
1166.000000	96.823139
1165.000000	96.790519
1164.000000	96.769822
1163.000000	96.765928
1162.000000	96.780091
1161.000000	96.806520
1160.000000	96.834746
1159.000000	96.855018
1158.000000	96.862053
1157.000000	96.855540
1156.000000	96.838140
1155.000000	96.812518
1154.000000	96.779865
1153.000000	96.741257
1152.000000	96.699434
1151.000000	96.657661
1150.000000	96.617182
1149.000000	96.577352
1148.000000	96.537683
1147.000000	96.497793
1146.000000	96.456295
1145.000000	96.412709
1144.000000	96.369994
1143.000000	96.331605
1142.000000	96.295784
1141.000000	96.256705
1140.000000	96.212191
1139.000000	96.166551
1138.000000	96.124362
1137.000000	96.084948
1136.000000	96.044945
1135.000000	96.003035
1134.000000	95.959980
1133.000000	95.916693
1132.000000	95.874348
1131.000000	95.833885
1130.000000	95.793599
1129.000000	95.749748
1128.000000	95.701224
1127.000000	95.651132
1126.000000	95.602357
1125.000000	95.554421
1124.000000	95.506324
1123.000000	95.459258
1122.000000	95.414234
1121.000000	95.369754
1120.000000	95.324206
1119.000000	95.278299
1118.000000	95.233129
1117.000000	95.188064
1116.000000	95.142107
1115.000000	95.095055
1114.000000	95.046267
1113.000000	94.995283
1112.000000	94.945001
1111.000000	94.900679
1110.000000	94.863624
1109.000000	94.828633
1108.000000	94.789413
1107.000000	94.744454
1106.000000	94.696452
1105.000000	94.649084
1104.000000	94.605904
1103.000000	94.569098
1102.000000	94.537531
1101.000000	94.507923
1100.000000	94.478693
1099.000000	94.450313
1098.000000	94.421538
1097.000000	94.390191
1096.000000	94.357369
1095.000000	94.326315
1094.000000	94.296195
1093.000000	94.261933
1092.000000	94.221615
1091.000000	94.179506
1090.000000	94.140206
1089.000000	94.104265
1088.000000	94.071026
1087.000000	94.040959
1086.000000	94.012876
1085.000000	93.982772
1084.000000	93.947689
1083.000000	93.908308
1082.000000	93.867484
1081.000000	93.829236
1080.000000	93.798423
1079.000000	93.776732
1078.000000	93.758871
1077.000000	93.736987
1076.000000	93.707970
1075.000000	93.672113
1074.000000	93.627386
1073.000000	93.571993
1072.000000	93.510702
1071.000000	93.450345
1070.000000	93.389324
1069.000000	93.320042
1068.000000	93.241841
1067.000000	93.162320
1066.000000	93.084550
1065.000000	93.002923
1064.000000	92.915027
1063.000000	92.828335
1062.000000	92.750781
1061.000000	92.682580
1060.000000	92.621467
1059.000000	92.567766
1058.000000	92.519240
1057.000000	92.468192
1056.000000	92.409218
1055.000000	92.344822
1054.000000	92.279586
1053.000000	92.213381
1052.000000	92.142876
1051.000000	92.064097
1050.000000	91.971428
1049.000000	91.861459
1048.000000	91.740298
1047.000000	91.619363
1046.000000	91.502056
1045.000000	91.383052
1044.000000	91.261563
1043.000000	91.144935
1042.000000	91.036261
1041.000000	90.928605
1040.000000	90.816713
1039.000000	90.705899
1038.000000	90.603574
1037.000000	90.509311
1036.000000	90.418640
1035.000000	90.330043
1034.000000	90.243890
1033.000000	90.161310
1032.000000	90.088034
1031.000000	90.031867
1030.000000	89.991806
1029.000000	89.956251
1028.000000	89.915933
1027.000000	89.872152
1026.000000	89.829188
1025.000000	89.786492
1024.000000	89.742731
1023.000000	89.700451
1022.000000	89.662085
1021.000000	89.626871
1020.000000	89.594616
1019.000000	89.566503
1018.000000	89.539844
1017.000000	89.508575
1016.000000	89.471151
1015.000000	89.431694
1014.000000	89.392223
1013.000000	89.351034
1012.000000	89.309859
1011.000000	89.274456
1010.000000	89.246356
1009.000000	89.221808
1008.000000	89.199873
1007.000000	89.182496
1006.000000	89.165302
1005.000000	89.138881
1004.000000	89.103027
1003.000000	89.070479
1002.000000	89.052207
1001.000000	89.046581
1000.000000	89.046162
999.000000	89.047224
998.000000	89.048971
997.000000	89.050537
996.000000	89.052484
995.000000	89.055607
994.000000	89.056683
993.000000	89.052193
992.000000	89.047143
991.000000	89.052072
990.000000	89.069633
989.000000	89.091913
988.000000	89.112379
987.000000	89.132357
986.000000	89.154458
985.000000	89.179000
984.000000	89.209303
983.000000	89.251115
982.000000	89.303127
981.000000	89.356168
980.000000	89.405589
979.000000	89.457329
978.000000	89.518674
977.000000	89.590105
976.000000	89.668824
975.000000	89.753181
974.000000	89.840655
973.000000	89.927824
972.000000	90.015334
971.000000	90.107695
970.000000	90.206525
969.000000	90.309140
968.000000	90.413968
967.000000	90.521011
966.000000	90.626671
965.000000	90.725168
964.000000	90.816265
963.000000	90.905559
962.000000	90.996512
961.000000	91.087950
960.000000	91.179019
959.000000	91.269887
958.000000	91.357977
957.000000	91.440824
956.000000	91.522338
955.000000	91.608328
954.000000	91.695591
953.000000	91.774119
952.000000	91.841075
951.000000	91.903998
950.000000	91.968645
949.000000	92.032385
948.000000	92.092437
947.000000	92.151576
946.000000	92.210955
945.000000	92.264784
944.000000	92.307792
943.000000	92.342722
942.000000	92.375721
941.000000	92.408427
940.000000	92.439292
939.000000	92.469700
938.000000	92.504300
937.000000	92.545951
936.000000	92.591913
935.000000	92.634266
934.000000	92.665421
933.000000	92.686199
932.000000	92.707126
931.000000	92.738003
930.000000	92.778022
929.000000	92.820644
928.000000	92.864673
927.000000	92.912741
926.000000	92.961033
925.000000	93.000549
924.000000	93.029888
923.000000	93.058194
922.000000	93.092962
921.000000	93.132177
920.000000	93.170704
919.000000	93.207051
918.000000	93.240875
917.000000	93.270781
916.000000	93.298437
915.000000	93.329576
914.000000	93.367519
913.000000	93.409973
912.000000	93.454089
911.000000	93.499830
910.000000	93.547018
909.000000	93.594926
908.000000	93.646950
907.000000	93.710062
906.000000	93.786942
905.000000	93.873124
904.000000	93.963236
903.000000	94.055652
902.000000	94.150537
901.000000	94.248682
900.000000	94.352837
899.000000	94.464377
898.000000	94.577864
897.000000	94.684957
896.000000	94.784487
895.000000	94.882861
894.000000	94.983836
893.000000	95.084050
892.000000	95.179631
891.000000	95.270670
890.000000	95.357351
889.000000	95.438057
888.000000	95.514310
887.000000	95.592274
886.000000	95.675763
885.000000	95.761361
884.000000	95.842844
883.000000	95.917054
882.000000	95.984156
881.000000	96.046206
880.000000	96.107079
879.000000	96.169979
878.000000	96.233414
877.000000	96.293265
876.000000	96.349699
875.000000	96.407891
874.000000	96.471689
873.000000	96.541382
872.000000	96.617535
871.000000	96.700732
870.000000	96.786693
869.000000	96.868211
868.000000	96.943711
867.000000	97.018151
866.000000	97.093605
865.000000	97.164575
864.000000	97.225622
863.000000	97.279142
862.000000	97.332937
861.000000	97.393840
860.000000	97.465581
859.000000	97.547952
858.000000	97.634488
857.000000	97.714715
856.000000	97.782213
855.000000	97.838486
854.000000	97.887714
853.000000	97.931676
852.000000	97.972097
851.000000	98.013049
850.000000	98.056245
849.000000	98.096733
848.000000	98.127587
847.000000	98.147340
846.000000	98.160171
845.000000	98.171379
844.000000	98.185745
843.000000	98.206688
842.000000	98.231356
841.000000	98.247854
840.000000	98.242598
839.000000	98.211403
838.000000	98.161893
837.000000	98.106763
836.000000	98.057562
835.000000	98.022252
834.000000	98.002313
833.000000	97.990820
832.000000	97.977366
831.000000	97.957225
830.000000	97.935036
829.000000	97.919584
828.000000	97.915798
827.000000	97.920429
826.000000	97.923812
825.000000	97.918000
824.000000	97.905934
823.000000	97.900910
822.000000	97.913554
821.000000	97.940105
820.000000	97.965527
819.000000	97.976369
818.000000	97.969836
817.000000	97.952721
816.000000	97.932233
815.000000	97.905883
814.000000	97.860277
813.000000	97.782799
812.000000	97.674676
811.000000	97.548561
810.000000	97.411581
809.000000	97.255366
808.000000	97.066419
807.000000	96.842414
806.000000	96.594440
805.000000	96.337296
804.000000	96.083154
803.000000	95.841499
802.000000	95.618711
801.000000	95.419098
800.000000	95.250452
799.000000	95.125183
798.000000	95.051158
797.000000	95.024130
796.000000	95.032083
795.000000	95.062724
794.000000	95.104211
793.000000	95.145267
792.000000	95.180767
791.000000	95.214217
790.000000	95.250252
789.000000	95.286699
788.000000	95.316063
787.000000	95.330117
786.000000	95.319313
785.000000	95.273121
784.000000	95.188734
783.000000	95.079433
782.000000	94.969385
781.000000	94.879154
780.000000	94.817843
779.000000	94.785681
778.000000	94.778829
777.000000	94.792529
776.000000	94.823719
775.000000	94.871881
774.000000	94.937179
773.000000	95.018579
772.000000	95.112558
771.000000	95.210541
770.000000	95.298792
769.000000	95.366551
768.000000	95.415797
767.000000	95.458436
766.000000	95.501545
765.000000	95.539132
764.000000	95.561469
763.000000	95.569313
762.000000	95.574861
761.000000	95.590061
760.000000	95.617160
759.000000	95.649725
758.000000	95.680335
757.000000	95.707508
756.000000	95.736328
755.000000	95.772275
754.000000	95.815002
753.000000	95.859728
752.000000	95.903622
751.000000	95.947457
750.000000	95.991287
749.000000	96.033169
748.000000	96.074046
747.000000	96.120147
746.000000	96.177331
745.000000	96.244598
744.000000	96.315335
743.000000	96.383925
742.000000	96.449971
741.000000	96.517102
740.000000	96.588249
739.000000	96.660916
738.000000	96.727465
737.000000	96.782542
736.000000	96.830058
735.000000	96.879816
734.000000	96.936643
733.000000	96.995857
732.000000	97.050420
731.000000	97.098941
730.000000	97.143942
729.000000	97.185186
728.000000	97.219131
727.000000	97.244888
726.000000	97.267067
725.000000	97.290779
724.000000	97.316261
723.000000	97.341627
722.000000	97.370097
721.000000	97.410419
720.000000	97.467363
719.000000	97.533778
718.000000	97.595922
717.000000	97.645653
716.000000	97.683310
715.000000	97.710438
714.000000	97.726639
713.000000	97.735601
712.000000	97.747542
711.000000	97.769643
710.000000	97.796576
709.000000	97.816044
708.000000	97.822431
707.000000	97.820342
706.000000	97.816227
705.000000	97.811202
704.000000	97.801313
703.000000	97.779100
702.000000	97.733201
701.000000	97.651388
700.000000	97.528721
699.000000	97.373346
698.000000	97.205366
697.000000	97.050862
696.000000	96.934020
695.000000	96.869549
694.000000	96.859920
693.000000	96.899805
692.000000	96.979126
691.000000	97.079177
690.000000	97.173686
689.000000	97.244318
688.000000	97.296128
687.000000	97.349438
686.000000	97.414496
685.000000	97.482411
684.000000	97.540759
683.000000	97.587473
682.000000	97.627204
681.000000	97.662589
680.000000	97.693623
679.000000	97.720473
678.000000	97.743582
677.000000	97.765359
676.000000	97.792225
675.000000	97.828837
674.000000	97.871606
673.000000	97.912305
672.000000	97.948107
671.000000	97.984245
670.000000	98.026103
669.000000	98.073902
668.000000	98.124388
667.000000	98.163089
666.000000	98.177024
665.000000	98.180146
664.000000	98.192052
663.000000	98.221772
662.000000	98.263941
661.000000	98.304476
660.000000	98.334655
659.000000	98.355349
658.000000	98.368068
657.000000	98.368972
656.000000	98.355811
655.000000	98.337923
654.000000	98.335128
653.000000	98.361686
652.000000	98.410802
651.000000	98.455986
650.000000	98.472434
649.000000	98.462072
648.000000	98.452957
647.000000	98.469603
646.000000	98.507076
645.000000	98.540684
644.000000	98.560402
643.000000	98.582168
642.000000	98.620548
641.000000	98.664773
640.000000	98.693888
639.000000	98.707105
638.000000	98.725984
637.000000	98.768483
636.000000	98.833210
635.000000	98.907627
634.000000	98.979275
633.000000	99.037803
632.000000	99.075296
631.000000	99.092116
630.000000	99.100924
629.000000	99.118968
628.000000	99.155441
627.000000	99.206978
626.000000	99.262234
625.000000	99.309963
624.000000	99.344978
623.000000	99.369090
622.000000	99.389930
621.000000	99.419744
620.000000	99.471430
619.000000	99.546793
618.000000	99.622949
617.000000	99.659761
616.000000	99.631690
615.000000	99.554527
614.000000	99.476538
613.000000	99.435617
612.000000	99.433353
611.000000	99.448646
610.000000	99.459394
609.000000	99.450838
608.000000	99.419414
607.000000	99.379895
606.000000	99.356306
605.000000	99.349539
604.000000	99.324310
603.000000	99.245067
602.000000	99.123275
601.000000	99.015555
600.000000	98.973739
599.000000	99.004127
598.000000	99.070401
597.000000	99.129908
596.000000	99.163866
595.000000	99.178073
594.000000	99.189889
593.000000	99.214081
592.000000	99.247643
591.000000	99.265202
590.000000	99.242353
589.000000	99.188472
588.000000	99.143076
587.000000	99.136122
586.000000	99.156529
585.000000	99.167334
584.000000	99.148385
583.000000	99.111063
582.000000	99.080333
581.000000	99.077454
580.000000	99.116055
579.000000	99.194275
578.000000	99.287641
577.000000	99.368963
576.000000	99.435974
575.000000	99.504537
574.000000	99.579237
573.000000	99.647509
572.000000	99.694419
571.000000	99.706800
570.000000	99.674615
569.000000	99.600184
568.000000	99.498702
567.000000	99.384201
566.000000	99.255154
565.000000	99.098099
564.000000	98.906291
563.000000	98.691922
562.000000	98.486491
561.000000	98.333060
560.000000	98.266236
559.000000	98.273784
558.000000	98.283370
557.000000	98.234751
556.000000	98.154027
555.000000	98.103849
554.000000	98.071633
553.000000	97.979958
552.000000	97.819525
551.000000	97.694497
550.000000	97.695757
