PE IR       SUBTECH     SPECTRUM    ASCII       PEDS        4.00        
   -1
ABH1 5-2 5 80_1.asc
24/05/15
14:35:33.00
24/05/15
14:37:31.00
Administrator
?品 092 用? Administrator 日期 Wednesday, May 15 2024
550.000000
#HDR
-1
-1
#GR
cm-1
%T
1.0
0.0
4000.000000
-1.000000
3451
8
99.937620
95.656636
#DATA
4000.000000	99.898285
3999.000000	99.898640
3998.000000	99.897691
3997.000000	99.894779
3996.000000	99.890579
3995.000000	99.887108
3994.000000	99.885868
3993.000000	99.886720
3992.000000	99.888051
3991.000000	99.888200
3990.000000	99.887015
3989.000000	99.885662
3988.000000	99.885171
3987.000000	99.885401
3986.000000	99.885488
3985.000000	99.885116
3984.000000	99.885046
3983.000000	99.886293
3982.000000	99.888956
3981.000000	99.891889
3980.000000	99.893449
3979.000000	99.892584
3978.000000	99.889388
3977.000000	99.885083
3976.000000	99.881401
3975.000000	99.879590
3974.000000	99.879790
3973.000000	99.881191
3972.000000	99.882764
3971.000000	99.883858
3970.000000	99.884294
3969.000000	99.884206
3968.000000	99.883948
3967.000000	99.883994
3966.000000	99.884698
3965.000000	99.886130
3964.000000	99.888134
3963.000000	99.890486
3962.000000	99.892918
3961.000000	99.894994
3960.000000	99.896153
3959.000000	99.895892
3958.000000	99.893862
3957.000000	99.889934
3956.000000	99.884471
3955.000000	99.878612
3954.000000	99.874062
3953.000000	99.872277
3952.000000	99.873611
3951.000000	99.877052
3950.000000	99.880857
3949.000000	99.883850
3948.000000	99.886061
3947.000000	99.887909
3946.000000	99.889229
3945.000000	99.889443
3944.000000	99.888408
3943.000000	99.886638
3942.000000	99.884715
3941.000000	99.882969
3940.000000	99.881925
3939.000000	99.882381
3938.000000	99.884612
3937.000000	99.887659
3936.000000	99.889888
3935.000000	99.890436
3934.000000	99.889607
3933.000000	99.887928
3932.000000	99.885332
3931.000000	99.881841
3930.000000	99.878565
3929.000000	99.877129
3928.000000	99.878174
3927.000000	99.880838
3926.000000	99.883706
3925.000000	99.885945
3924.000000	99.887486
3923.000000	99.888589
3922.000000	99.889485
3921.000000	99.890100
3920.000000	99.890125
3919.000000	99.889470
3918.000000	99.888625
3917.000000	99.888129
3916.000000	99.887761
3915.000000	99.886743
3914.000000	99.884829
3913.000000	99.882637
3912.000000	99.881117
3911.000000	99.880796
3910.000000	99.881615
3909.000000	99.883056
3908.000000	99.884387
3907.000000	99.885053
3906.000000	99.885039
3905.000000	99.884932
3904.000000	99.885313
3903.000000	99.886053
3902.000000	99.886502
3901.000000	99.886312
3900.000000	99.885776
3899.000000	99.885396
3898.000000	99.885382
3897.000000	99.885671
3896.000000	99.886116
3895.000000	99.886522
3894.000000	99.886757
3893.000000	99.886883
3892.000000	99.887126
3891.000000	99.887528
3890.000000	99.887839
3889.000000	99.887875
3888.000000	99.887711
3887.000000	99.887593
3886.000000	99.887704
3885.000000	99.888007
3884.000000	99.888367
3883.000000	99.888725
3882.000000	99.889107
3881.000000	99.889510
3880.000000	99.889901
3879.000000	99.890278
3878.000000	99.890661
3877.000000	99.891061
3876.000000	99.891486
3875.000000	99.891938
3874.000000	99.892405
3873.000000	99.892869
3872.000000	99.893312
3871.000000	99.893727
3870.000000	99.894109
3869.000000	99.894457
3868.000000	99.894772
3867.000000	99.895060
3866.000000	99.895330
3865.000000	99.895582
3864.000000	99.895806
3863.000000	99.895998
3862.000000	99.896163
3861.000000	99.896312
3860.000000	99.896451
3859.000000	99.896577
3858.000000	99.896686
3857.000000	99.896779
3856.000000	99.896860
3855.000000	99.896938
3854.000000	99.897018
3853.000000	99.897089
3852.000000	99.897130
3851.000000	99.897130
3850.000000	99.897098
3849.000000	99.897056
3848.000000	99.897024
3847.000000	99.897020
3846.000000	99.897047
3845.000000	99.897097
3844.000000	99.897153
3843.000000	99.897195
3842.000000	99.897207
3841.000000	99.897175
3840.000000	99.897098
3839.000000	99.896985
3838.000000	99.896855
3837.000000	99.896725
3836.000000	99.896598
3835.000000	99.896466
3834.000000	99.896318
3833.000000	99.896152
3832.000000	99.895976
3831.000000	99.895806
3830.000000	99.895657
3829.000000	99.895541
3828.000000	99.895460
3827.000000	99.895407
3826.000000	99.895371
3825.000000	99.895339
3824.000000	99.895300
3823.000000	99.895257
3822.000000	99.895223
3821.000000	99.895212
3820.000000	99.895216
3819.000000	99.895217
3818.000000	99.895202
3817.000000	99.895172
3816.000000	99.895134
3815.000000	99.895090
3814.000000	99.895039
3813.000000	99.894989
3812.000000	99.894949
3811.000000	99.894924
3810.000000	99.894914
3809.000000	99.894913
3808.000000	99.894912
3807.000000	99.894901
3806.000000	99.894870
3805.000000	99.894805
3804.000000	99.894700
3803.000000	99.894561
3802.000000	99.894405
3801.000000	99.894248
3800.000000	99.894096
3799.000000	99.893957
3798.000000	99.893846
3797.000000	99.893773
3796.000000	99.893736
3795.000000	99.893721
3794.000000	99.893717
3793.000000	99.893722
3792.000000	99.893739
3791.000000	99.893779
3790.000000	99.893842
3789.000000	99.893920
3788.000000	99.893992
3787.000000	99.894041
3786.000000	99.894080
3785.000000	99.894091
3784.000000	99.894053
3783.000000	99.893979
3782.000000	99.893914
3781.000000	99.893917
3780.000000	99.894008
3779.000000	99.894085
3778.000000	99.893936
3777.000000	99.893433
3776.000000	99.892759
3775.000000	99.892325
3774.000000	99.892389
3773.000000	99.892868
3772.000000	99.893549
3771.000000	99.894346
3770.000000	99.895096
3769.000000	99.895320
3768.000000	99.894626
3767.000000	99.893290
3766.000000	99.892190
3765.000000	99.891890
3764.000000	99.891947
3763.000000	99.891569
3762.000000	99.890893
3761.000000	99.890894
3760.000000	99.892037
3759.000000	99.893610
3758.000000	99.894805
3757.000000	99.895626
3756.000000	99.896387
3755.000000	99.897265
3754.000000	99.898301
3753.000000	99.899163
3752.000000	99.898877
3751.000000	99.897051
3750.000000	99.895152
3749.000000	99.894533
3748.000000	99.894216
3747.000000	99.892448
3746.000000	99.889416
3745.000000	99.887677
3744.000000	99.888244
3743.000000	99.888781
3742.000000	99.887768
3741.000000	99.886506
3740.000000	99.886682
3739.000000	99.888139
3738.000000	99.889165
3737.000000	99.888494
3736.000000	99.886187
3735.000000	99.883096
3734.000000	99.880129
3733.000000	99.878067
3732.000000	99.877061
3731.000000	99.876174
3730.000000	99.874124
3729.000000	99.870623
3728.000000	99.866896
3727.000000	99.864664
3726.000000	99.864394
3725.000000	99.865222
3724.000000	99.866465
3723.000000	99.868116
3722.000000	99.869832
3721.000000	99.870452
3720.000000	99.868974
3719.000000	99.865575
3718.000000	99.861743
3717.000000	99.859002
3716.000000	99.857633
3715.000000	99.857064
3714.000000	99.856935
3713.000000	99.857478
3712.000000	99.858906
3711.000000	99.860532
3710.000000	99.861054
3709.000000	99.859817
3708.000000	99.857448
3707.000000	99.854985
3706.000000	99.852560
3705.000000	99.849364
3704.000000	99.844871
3703.000000	99.840012
3702.000000	99.836811
3701.000000	99.836289
3700.000000	99.837173
3699.000000	99.837491
3698.000000	99.836986
3697.000000	99.837077
3696.000000	99.838585
3695.000000	99.840857
3694.000000	99.843176
3693.000000	99.845370
3692.000000	99.846675
3691.000000	99.845060
3690.000000	99.838881
3689.000000	99.829153
3688.000000	99.819213
3687.000000	99.811623
3686.000000	99.806862
3685.000000	99.804689
3684.000000	99.804557
3683.000000	99.805077
3682.000000	99.804852
3681.000000	99.804514
3680.000000	99.805872
3679.000000	99.808640
3678.000000	99.809968
3677.000000	99.808540
3676.000000	99.807017
3675.000000	99.806814
3674.000000	99.804643
3673.000000	99.797478
3672.000000	99.786502
3671.000000	99.776089
3670.000000	99.769860
3669.000000	99.767099
3668.000000	99.764703
3667.000000	99.760837
3666.000000	99.755326
3665.000000	99.748717
3664.000000	99.741827
3663.000000	99.735606
3662.000000	99.730878
3661.000000	99.727916
3660.000000	99.726026
3659.000000	99.724220
3658.000000	99.722175
3657.000000	99.720729
3656.000000	99.720462
3655.000000	99.720499
3654.000000	99.719822
3653.000000	99.718644
3652.000000	99.717704
3651.000000	99.716167
3650.000000	99.711269
3649.000000	99.701855
3648.000000	99.691381
3647.000000	99.684383
3646.000000	99.681729
3645.000000	99.681321
3644.000000	99.680800
3643.000000	99.678951
3642.000000	99.675561
3641.000000	99.670874
3640.000000	99.665644
3639.000000	99.661251
3638.000000	99.658669
3637.000000	99.657638
3636.000000	99.657459
3635.000000	99.658227
3634.000000	99.660122
3633.000000	99.661822
3632.000000	99.661157
3631.000000	99.657378
3630.000000	99.652571
3629.000000	99.649481
3628.000000	99.647545
3627.000000	99.644636
3626.000000	99.641101
3625.000000	99.638854
3624.000000	99.638717
3623.000000	99.639804
3622.000000	99.640852
3621.000000	99.641609
3620.000000	99.642622
3619.000000	99.644215
3618.000000	99.646027
3617.000000	99.647272
3616.000000	99.647359
3615.000000	99.646630
3614.000000	99.646123
3613.000000	99.646267
3612.000000	99.646410
3611.000000	99.646182
3610.000000	99.646646
3609.000000	99.649298
3608.000000	99.653913
3607.000000	99.658145
3606.000000	99.659711
3605.000000	99.658126
3604.000000	99.654306
3603.000000	99.649884
3602.000000	99.646548
3601.000000	99.645418
3600.000000	99.646413
3599.000000	99.648721
3598.000000	99.651677
3597.000000	99.654701
3596.000000	99.656807
3595.000000	99.657322
3594.000000	99.656773
3593.000000	99.656444
3592.000000	99.656903
3591.000000	99.657455
3590.000000	99.657317
3589.000000	99.657035
3588.000000	99.658026
3587.000000	99.660375
3586.000000	99.662318
3585.000000	99.662412
3584.000000	99.660693
3583.000000	99.657854
3582.000000	99.654444
3581.000000	99.651144
3580.000000	99.648996
3579.000000	99.648720
3578.000000	99.649824
3577.000000	99.650671
3576.000000	99.649804
3575.000000	99.647157
3574.000000	99.643996
3573.000000	99.641619
3572.000000	99.640298
3571.000000	99.639288
3570.000000	99.637767
3569.000000	99.635901
3568.000000	99.634891
3567.000000	99.635652
3566.000000	99.637822
3565.000000	99.640401
3564.000000	99.642704
3563.000000	99.644273
3562.000000	99.644676
3561.000000	99.643940
3560.000000	99.643026
3559.000000	99.643259
3558.000000	99.645059
3557.000000	99.647303
3556.000000	99.648174
3555.000000	99.646676
3554.000000	99.643393
3553.000000	99.639758
3552.000000	99.636599
3551.000000	99.633675
3550.000000	99.630528
3549.000000	99.627297
3548.000000	99.624593
3547.000000	99.623016
3546.000000	99.622933
3545.000000	99.624326
3544.000000	99.626570
3543.000000	99.628607
3542.000000	99.629625
3541.000000	99.629525
3540.000000	99.628767
3539.000000	99.627973
3538.000000	99.627609
3537.000000	99.627880
3536.000000	99.628734
3535.000000	99.630046
3534.000000	99.631663
3533.000000	99.633170
3532.000000	99.633842
3531.000000	99.633251
3530.000000	99.631970
3529.000000	99.631307
3528.000000	99.632009
3527.000000	99.633457
3526.000000	99.634337
3525.000000	99.633895
3524.000000	99.632346
3523.000000	99.630428
3522.000000	99.628874
3521.000000	99.628200
3520.000000	99.628628
3519.000000	99.630022
3518.000000	99.631870
3517.000000	99.633477
3516.000000	99.634293
3515.000000	99.634244
3514.000000	99.633844
3513.000000	99.633899
3512.000000	99.634865
3511.000000	99.636335
3510.000000	99.637257
3509.000000	99.636796
3508.000000	99.634927
3507.000000	99.632299
3506.000000	99.629763
3505.000000	99.628018
3504.000000	99.627354
3503.000000	99.627569
3502.000000	99.628243
3501.000000	99.629185
3500.000000	99.630466
3499.000000	99.631945
3498.000000	99.633021
3497.000000	99.633072
3496.000000	99.632085
3495.000000	99.630772
3494.000000	99.630000
3493.000000	99.630054
3492.000000	99.630535
3491.000000	99.630805
3490.000000	99.630512
3489.000000	99.629744
3488.000000	99.628820
3487.000000	99.628040
3486.000000	99.627578
3485.000000	99.627446
3484.000000	99.627461
3483.000000	99.627332
3482.000000	99.626914
3481.000000	99.626362
3480.000000	99.625971
3479.000000	99.625885
3478.000000	99.626059
3477.000000	99.626430
3476.000000	99.626956
3475.000000	99.627492
3474.000000	99.627826
3473.000000	99.627918
3472.000000	99.627928
3471.000000	99.627859
3470.000000	99.627322
3469.000000	99.625958
3468.000000	99.624023
3467.000000	99.622374
3466.000000	99.621751
3465.000000	99.622174
3464.000000	99.622985
3463.000000	99.623428
3462.000000	99.623220
3461.000000	99.622557
3460.000000	99.621763
3459.000000	99.621046
3458.000000	99.620488
3457.000000	99.620120
3456.000000	99.619876
3455.000000	99.619556
3454.000000	99.619050
3453.000000	99.618641
3452.000000	99.618826
3451.000000	99.619688
3450.000000	99.620598
3449.000000	99.620821
3448.000000	99.620304
3447.000000	99.619632
3446.000000	99.619333
3445.000000	99.619554
3444.000000	99.620312
3443.000000	99.621611
3442.000000	99.623198
3441.000000	99.624537
3440.000000	99.625219
3439.000000	99.625118
3438.000000	99.624088
3437.000000	99.621887
3436.000000	99.618622
3435.000000	99.615079
3434.000000	99.612348
3433.000000	99.611101
3432.000000	99.611335
3431.000000	99.612644
3430.000000	99.614523
3429.000000	99.616464
3428.000000	99.617992
3427.000000	99.618778
3426.000000	99.618775
3425.000000	99.618269
3424.000000	99.617749
3423.000000	99.617634
3422.000000	99.617923
3421.000000	99.618162
3420.000000	99.617882
3419.000000	99.617148
3418.000000	99.616553
3417.000000	99.616608
3416.000000	99.617261
3415.000000	99.618086
3414.000000	99.618781
3413.000000	99.619350
3412.000000	99.619809
3411.000000	99.619950
3410.000000	99.619546
3409.000000	99.618680
3408.000000	99.617760
3407.000000	99.617219
3406.000000	99.617199
3405.000000	99.617518
3404.000000	99.617813
3403.000000	99.617780
3402.000000	99.617339
3401.000000	99.616659
3400.000000	99.616066
3399.000000	99.615847
3398.000000	99.616082
3397.000000	99.616620
3396.000000	99.617154
3395.000000	99.617437
3394.000000	99.617423
3393.000000	99.617224
3392.000000	99.616937
3391.000000	99.616544
3390.000000	99.616061
3389.000000	99.615656
3388.000000	99.615555
3387.000000	99.615828
3386.000000	99.616286
3385.000000	99.616657
3384.000000	99.616850
3383.000000	99.616956
3382.000000	99.617083
3381.000000	99.617313
3380.000000	99.617781
3379.000000	99.618598
3378.000000	99.619589
3377.000000	99.620270
3376.000000	99.620251
3375.000000	99.619658
3374.000000	99.619060
3373.000000	99.618918
3372.000000	99.619142
3371.000000	99.619183
3370.000000	99.618560
3369.000000	99.617353
3368.000000	99.616269
3367.000000	99.616109
3366.000000	99.617087
3365.000000	99.618636
3364.000000	99.619932
3363.000000	99.620662
3362.000000	99.621172
3361.000000	99.621973
3360.000000	99.623262
3359.000000	99.624879
3358.000000	99.626549
3357.000000	99.627974
3356.000000	99.628778
3355.000000	99.628617
3354.000000	99.627502
3353.000000	99.626035
3352.000000	99.625229
3351.000000	99.625849
3350.000000	99.627882
3349.000000	99.630497
3348.000000	99.632589
3347.000000	99.633552
3346.000000	99.633445
3345.000000	99.632639
3344.000000	99.631519
3343.000000	99.630486
3342.000000	99.629925
3341.000000	99.629916
3340.000000	99.630060
3339.000000	99.629840
3338.000000	99.629215
3337.000000	99.628696
3336.000000	99.628756
3335.000000	99.629282
3334.000000	99.629731
3333.000000	99.629737
3332.000000	99.629452
3331.000000	99.629284
3330.000000	99.629440
3329.000000	99.629761
3328.000000	99.629971
3327.000000	99.630016
3326.000000	99.630119
3325.000000	99.630462
3324.000000	99.630836
3323.000000	99.630760
3322.000000	99.630021
3321.000000	99.629046
3320.000000	99.628569
3319.000000	99.628845
3318.000000	99.629393
3317.000000	99.629591
3316.000000	99.629458
3315.000000	99.629605
3314.000000	99.630481
3313.000000	99.631908
3312.000000	99.633313
3311.000000	99.634217
3310.000000	99.634396
3309.000000	99.633774
3308.000000	99.632454
3307.000000	99.630873
3306.000000	99.629634
3305.000000	99.629129
3304.000000	99.629336
3303.000000	99.629919
3302.000000	99.630481
3301.000000	99.630774
3300.000000	99.630774
3299.000000	99.630691
3298.000000	99.630856
3297.000000	99.631449
3296.000000	99.632243
3295.000000	99.632722
3294.000000	99.632615
3293.000000	99.632333
3292.000000	99.632712
3291.000000	99.634225
3290.000000	99.636458
3289.000000	99.638435
3288.000000	99.639440
3287.000000	99.639371
3286.000000	99.638467
3285.000000	99.636978
3284.000000	99.635175
3283.000000	99.633433
3282.000000	99.632116
3281.000000	99.631442
3280.000000	99.631547
3279.000000	99.632485
3278.000000	99.634013
3277.000000	99.635455
3276.000000	99.636047
3275.000000	99.635520
3274.000000	99.634291
3273.000000	99.633155
3272.000000	99.632813
3271.000000	99.633527
3270.000000	99.634936
3269.000000	99.636154
3268.000000	99.636338
3267.000000	99.635355
3266.000000	99.633785
3265.000000	99.632214
3264.000000	99.630642
3263.000000	99.628823
3262.000000	99.627061
3261.000000	99.626276
3260.000000	99.627059
3259.000000	99.628839
3258.000000	99.630196
3257.000000	99.630178
3256.000000	99.629218
3255.000000	99.628618
3254.000000	99.629201
3253.000000	99.630703
3252.000000	99.632381
3251.000000	99.633925
3250.000000	99.635530
3249.000000	99.637256
3248.000000	99.638656
3247.000000	99.639157
3246.000000	99.638626
3245.000000	99.637497
3244.000000	99.636441
3243.000000	99.635888
3242.000000	99.635773
3241.000000	99.635713
3240.000000	99.635447
3239.000000	99.635127
3238.000000	99.635101
3237.000000	99.635473
3236.000000	99.636052
3235.000000	99.636742
3234.000000	99.637802
3233.000000	99.639518
3232.000000	99.641702
3231.000000	99.643630
3230.000000	99.644595
3229.000000	99.644508
3228.000000	99.643987
3227.000000	99.643836
3226.000000	99.644326
3225.000000	99.645049
3224.000000	99.645487
3223.000000	99.645633
3222.000000	99.645956
3221.000000	99.646782
3220.000000	99.647870
3219.000000	99.648640
3218.000000	99.648760
3217.000000	99.648424
3216.000000	99.648191
3215.000000	99.648545
3214.000000	99.649609
3213.000000	99.651147
3212.000000	99.652733
3211.000000	99.653963
3210.000000	99.654607
3209.000000	99.654655
3208.000000	99.654285
3207.000000	99.653752
3206.000000	99.653261
3205.000000	99.652906
3204.000000	99.652720
3203.000000	99.652747
3202.000000	99.653073
3201.000000	99.653735
3200.000000	99.654624
3199.000000	99.655496
3198.000000	99.656166
3197.000000	99.656669
3196.000000	99.657181
3195.000000	99.657768
3194.000000	99.658252
3193.000000	99.658388
3192.000000	99.658118
3191.000000	99.657615
3190.000000	99.657135
3189.000000	99.656887
3188.000000	99.657053
3187.000000	99.657774
3186.000000	99.658969
3185.000000	99.660214
3184.000000	99.660958
3183.000000	99.660934
3182.000000	99.660325
3181.000000	99.659604
3180.000000	99.659167
3179.000000	99.659144
3178.000000	99.659518
3177.000000	99.660231
3176.000000	99.661177
3175.000000	99.662177
3174.000000	99.663043
3173.000000	99.663702
3172.000000	99.664174
3171.000000	99.664463
3170.000000	99.664562
3169.000000	99.664589
3168.000000	99.664799
3167.000000	99.665334
3166.000000	99.665994
3165.000000	99.666410
3164.000000	99.666468
3163.000000	99.666438
3162.000000	99.666613
3161.000000	99.666962
3160.000000	99.667250
3159.000000	99.667404
3158.000000	99.667654
3157.000000	99.668372
3156.000000	99.669751
3155.000000	99.671528
3154.000000	99.673025
3153.000000	99.673761
3152.000000	99.674062
3151.000000	99.674760
3150.000000	99.676076
3149.000000	99.677203
3148.000000	99.677323
3147.000000	99.676625
3146.000000	99.675976
3145.000000	99.675854
3144.000000	99.676101
3143.000000	99.676476
3142.000000	99.676826
3141.000000	99.676881
3140.000000	99.676551
3139.000000	99.676427
3138.000000	99.677283
3137.000000	99.678888
3136.000000	99.679847
3135.000000	99.678995
3134.000000	99.676546
3133.000000	99.673843
3132.000000	99.672140
3131.000000	99.671700
3130.000000	99.671981
3129.000000	99.672365
3128.000000	99.672716
3127.000000	99.673278
3126.000000	99.674161
3125.000000	99.675147
3124.000000	99.676016
3123.000000	99.676813
3122.000000	99.677542
3121.000000	99.677815
3120.000000	99.677240
3119.000000	99.676107
3118.000000	99.675304
3117.000000	99.675397
3116.000000	99.676134
3115.000000	99.676952
3114.000000	99.677691
3113.000000	99.678606
3112.000000	99.679859
3111.000000	99.681276
3110.000000	99.682470
3109.000000	99.683072
3108.000000	99.682962
3107.000000	99.682436
3106.000000	99.682107
3105.000000	99.682464
3104.000000	99.683487
3103.000000	99.684750
3102.000000	99.685879
3101.000000	99.686895
3100.000000	99.688077
3099.000000	99.689488
3098.000000	99.690702
3097.000000	99.691119
3096.000000	99.690580
3095.000000	99.689632
3094.000000	99.689134
3093.000000	99.689547
3092.000000	99.690781
3091.000000	99.692497
3090.000000	99.694377
3089.000000	99.696099
3088.000000	99.697346
3087.000000	99.698046
3086.000000	99.698483
3085.000000	99.698970
3084.000000	99.699460
3083.000000	99.699630
3082.000000	99.699284
3081.000000	99.698574
3080.000000	99.697858
3079.000000	99.697451
3078.000000	99.697531
3077.000000	99.698193
3076.000000	99.699507
3075.000000	99.701358
3074.000000	99.703175
3073.000000	99.704071
3072.000000	99.703556
3071.000000	99.702093
3070.000000	99.700742
3069.000000	99.700118
3068.000000	99.700099
3067.000000	99.700579
3066.000000	99.701895
3065.000000	99.704174
3064.000000	99.706793
3063.000000	99.709047
3062.000000	99.710929
3061.000000	99.712655
3060.000000	99.713777
3059.000000	99.713514
3058.000000	99.711936
3057.000000	99.710191
3056.000000	99.709420
3055.000000	99.709898
3054.000000	99.711233
3053.000000	99.712803
3052.000000	99.713977
3051.000000	99.714464
3050.000000	99.714659
3049.000000	99.715139
3048.000000	99.715706
3047.000000	99.715509
3046.000000	99.714210
3045.000000	99.712457
3044.000000	99.710996
3043.000000	99.709808
3042.000000	99.708522
3041.000000	99.707247
3040.000000	99.706516
3039.000000	99.706605
3038.000000	99.707368
3037.000000	99.708570
3036.000000	99.710005
3035.000000	99.711346
3034.000000	99.712365
3033.000000	99.713333
3032.000000	99.714830
3031.000000	99.716963
3030.000000	99.719048
3029.000000	99.720369
3028.000000	99.721064
3027.000000	99.721883
3026.000000	99.723187
3025.000000	99.724495
3024.000000	99.725094
3023.000000	99.724820
3022.000000	99.724118
3021.000000	99.723594
3020.000000	99.723676
3019.000000	99.724539
3018.000000	99.726036
3017.000000	99.727659
3016.000000	99.728818
3015.000000	99.729335
3014.000000	99.729613
3013.000000	99.730316
3012.000000	99.731830
3011.000000	99.733991
3010.000000	99.736190
3009.000000	99.737816
3008.000000	99.738772
3007.000000	99.739524
3006.000000	99.740674
3005.000000	99.742405
3004.000000	99.744444
3003.000000	99.746390
3002.000000	99.748038
3001.000000	99.749408
3000.000000	99.750633
2999.000000	99.751898
2998.000000	99.753326
2997.000000	99.754855
2996.000000	99.756296
2995.000000	99.757569
2994.000000	99.758809
2993.000000	99.760172
2992.000000	99.761583
2991.000000	99.762781
2990.000000	99.763672
2989.000000	99.764581
2988.000000	99.766041
2987.000000	99.768335
2986.000000	99.771189
2985.000000	99.773864
2984.000000	99.775686
2983.000000	99.776607
2982.000000	99.777405
2981.000000	99.779065
2980.000000	99.781774
2979.000000	99.784678
2978.000000	99.786742
2977.000000	99.787712
2976.000000	99.788170
2975.000000	99.788910
2974.000000	99.790386
2973.000000	99.792517
2972.000000	99.794725
2971.000000	99.796252
2970.000000	99.796750
2969.000000	99.796760
2968.000000	99.797508
2967.000000	99.799993
2966.000000	99.804029
2965.000000	99.808223
2964.000000	99.811208
2963.000000	99.812839
2962.000000	99.813823
2961.000000	99.814270
2960.000000	99.813457
2959.000000	99.811369
2958.000000	99.809527
2957.000000	99.809447
2956.000000	99.810815
2955.000000	99.811941
2954.000000	99.811672
2953.000000	99.810186
2952.000000	99.808294
2951.000000	99.806757
2950.000000	99.805973
2949.000000	99.805613
2948.000000	99.804877
2947.000000	99.803873
2946.000000	99.804394
2945.000000	99.808423
2944.000000	99.815961
2943.000000	99.825023
2942.000000	99.833509
2941.000000	99.840338
2940.000000	99.845094
2939.000000	99.847699
2938.000000	99.848720
2937.000000	99.849360
2936.000000	99.850981
2935.000000	99.854802
2934.000000	99.861448
2933.000000	99.870019
2932.000000	99.878112
2931.000000	99.883764
2930.000000	99.887120
2929.000000	99.889471
2928.000000	99.891369
2927.000000	99.892805
2926.000000	99.894492
2925.000000	99.897164
2924.000000	99.899898
2923.000000	99.900975
2922.000000	99.900423
2921.000000	99.899940
2920.000000	99.899899
2919.000000	99.898084
2918.000000	99.891940
2917.000000	99.880817
2916.000000	99.865911
2915.000000	99.849670
2914.000000	99.835624
2913.000000	99.826985
2912.000000	99.824165
2911.000000	99.824544
2910.000000	99.825321
2909.000000	99.825747
2908.000000	99.826254
2907.000000	99.826897
2906.000000	99.827636
2905.000000	99.828850
2904.000000	99.830237
2903.000000	99.830162
2902.000000	99.827347
2901.000000	99.822811
2900.000000	99.818884
2899.000000	99.816811
2898.000000	99.816389
2897.000000	99.817103
2896.000000	99.818193
2895.000000	99.818144
2894.000000	99.815836
2893.000000	99.812318
2892.000000	99.809966
2891.000000	99.809477
2890.000000	99.808915
2889.000000	99.806249
2888.000000	99.801883
2887.000000	99.797983
2886.000000	99.796058
2885.000000	99.795907
2884.000000	99.796367
2883.000000	99.796371
2882.000000	99.795562
2881.000000	99.794601
2880.000000	99.794818
2879.000000	99.797027
2878.000000	99.800566
2877.000000	99.803727
2876.000000	99.805098
2875.000000	99.804319
2874.000000	99.801811
2873.000000	99.798544
2872.000000	99.796270
2871.000000	99.797178
2870.000000	99.802384
2869.000000	99.810542
2868.000000	99.818422
2867.000000	99.823232
2866.000000	99.824320
2865.000000	99.822875
2864.000000	99.820636
2863.000000	99.818986
2862.000000	99.818543
2861.000000	99.818912
2860.000000	99.819138
2859.000000	99.819140
2858.000000	99.820513
2857.000000	99.824929
2856.000000	99.831458
2855.000000	99.836342
2854.000000	99.836182
2853.000000	99.831023
2852.000000	99.824112
2851.000000	99.818731
2850.000000	99.815320
2849.000000	99.811773
2848.000000	99.806168
2847.000000	99.798970
2846.000000	99.792647
2845.000000	99.789188
2844.000000	99.788260
2843.000000	99.787841
2842.000000	99.786228
2841.000000	99.783147
2840.000000	99.779351
2839.000000	99.775996
2838.000000	99.774344
2837.000000	99.775104
2836.000000	99.777556
2835.000000	99.779811
2834.000000	99.780405
2833.000000	99.779214
2832.000000	99.776661
2831.000000	99.772866
2830.000000	99.768292
2829.000000	99.764601
2828.000000	99.763676
2827.000000	99.765666
2826.000000	99.768661
2825.000000	99.770520
2824.000000	99.770643
2823.000000	99.769836
2822.000000	99.769005
2821.000000	99.768291
2820.000000	99.767256
2819.000000	99.765596
2818.000000	99.763657
2817.000000	99.762240
2816.000000	99.761865
2815.000000	99.762301
2814.000000	99.762863
2813.000000	99.763072
2812.000000	99.762930
2811.000000	99.762729
2810.000000	99.762770
2809.000000	99.763149
2808.000000	99.763601
2807.000000	99.763654
2806.000000	99.763249
2805.000000	99.763037
2804.000000	99.763739
2803.000000	99.765265
2802.000000	99.766704
2801.000000	99.767253
2800.000000	99.766949
2799.000000	99.766432
2798.000000	99.766308
2797.000000	99.766732
2796.000000	99.767484
2795.000000	99.768202
2794.000000	99.768581
2793.000000	99.768561
2792.000000	99.768356
2791.000000	99.768271
2790.000000	99.768426
2789.000000	99.768703
2788.000000	99.768945
2787.000000	99.769116
2786.000000	99.769281
2785.000000	99.769517
2784.000000	99.769872
2783.000000	99.770353
2782.000000	99.770914
2781.000000	99.771471
2780.000000	99.771966
2779.000000	99.772404
2778.000000	99.772824
2777.000000	99.773254
2776.000000	99.773695
2775.000000	99.774142
2774.000000	99.774602
2773.000000	99.775089
2772.000000	99.775620
2771.000000	99.776192
2770.000000	99.776765
2769.000000	99.777266
2768.000000	99.777645
2767.000000	99.777921
2766.000000	99.778205
2765.000000	99.778618
2764.000000	99.779204
2763.000000	99.779881
2762.000000	99.780484
2761.000000	99.780921
2760.000000	99.781227
2759.000000	99.781505
2758.000000	99.781817
2757.000000	99.782151
2756.000000	99.782488
2755.000000	99.782831
2754.000000	99.783179
2753.000000	99.783493
2752.000000	99.783729
2751.000000	99.783926
2750.000000	99.784224
2749.000000	99.784729
2748.000000	99.785409
2747.000000	99.786127
2746.000000	99.786810
2745.000000	99.787504
2744.000000	99.788237
2743.000000	99.788866
2742.000000	99.789172
2741.000000	99.789070
2740.000000	99.788720
2739.000000	99.788445
2738.000000	99.788491
2737.000000	99.788856
2736.000000	99.789308
2735.000000	99.789608
2734.000000	99.789752
2733.000000	99.789921
2732.000000	99.790245
2731.000000	99.790687
2730.000000	99.791165
2729.000000	99.791697
2728.000000	99.792335
2727.000000	99.793031
2726.000000	99.793638
2725.000000	99.794046
2724.000000	99.794311
2723.000000	99.794598
2722.000000	99.794998
2721.000000	99.795394
2720.000000	99.795594
2719.000000	99.795601
2718.000000	99.795679
2717.000000	99.796062
2716.000000	99.796697
2715.000000	99.797276
2714.000000	99.797552
2713.000000	99.797567
2712.000000	99.797567
2711.000000	99.797738
2710.000000	99.798059
2709.000000	99.798401
2708.000000	99.798672
2707.000000	99.798855
2706.000000	99.798974
2705.000000	99.799068
2704.000000	99.799183
2703.000000	99.799333
2702.000000	99.799475
2701.000000	99.799541
2700.000000	99.799513
2699.000000	99.799426
2698.000000	99.799334
2697.000000	99.799261
2696.000000	99.799196
2695.000000	99.799126
2694.000000	99.799057
2693.000000	99.799007
2692.000000	99.798993
2691.000000	99.799006
2690.000000	99.799000
2689.000000	99.798923
2688.000000	99.798763
2687.000000	99.798585
2686.000000	99.798471
2685.000000	99.798420
2684.000000	99.798304
2683.000000	99.797994
2682.000000	99.797535
2681.000000	99.797138
2680.000000	99.796956
2679.000000	99.796905
2678.000000	99.796730
2677.000000	99.796279
2676.000000	99.795665
2675.000000	99.795196
2674.000000	99.795093
2673.000000	99.795233
2672.000000	99.795232
2671.000000	99.794883
2670.000000	99.794428
2669.000000	99.794260
2668.000000	99.794418
2667.000000	99.794573
2666.000000	99.794537
2665.000000	99.794486
2664.000000	99.794542
2663.000000	99.794411
2662.000000	99.793706
2661.000000	99.792496
2660.000000	99.791327
2659.000000	99.790681
2658.000000	99.790639
2657.000000	99.791060
2656.000000	99.791804
2655.000000	99.792685
2654.000000	99.793418
2653.000000	99.793794
2652.000000	99.793800
2651.000000	99.793469
2650.000000	99.792753
2649.000000	99.791651
2648.000000	99.790335
2647.000000	99.789049
2646.000000	99.787978
2645.000000	99.787260
2644.000000	99.786983
2643.000000	99.787059
2642.000000	99.787234
2641.000000	99.787333
2640.000000	99.787398
2639.000000	99.787480
2638.000000	99.787419
2637.000000	99.787019
2636.000000	99.786369
2635.000000	99.785841
2634.000000	99.785700
2633.000000	99.785822
2632.000000	99.785835
2631.000000	99.785507
2630.000000	99.784943
2629.000000	99.784442
2628.000000	99.784188
2627.000000	99.784106
2626.000000	99.783995
2625.000000	99.783752
2624.000000	99.783439
2623.000000	99.783169
2622.000000	99.782978
2621.000000	99.782830
2620.000000	99.782716
2619.000000	99.782665
2618.000000	99.782667
2617.000000	99.782621
2616.000000	99.782415
2615.000000	99.782047
2614.000000	99.781635
2613.000000	99.781331
2612.000000	99.781188
2611.000000	99.781147
2610.000000	99.781107
2609.000000	99.781017
2608.000000	99.780895
2607.000000	99.780794
2606.000000	99.780763
2605.000000	99.780816
2604.000000	99.780931
2603.000000	99.781067
2602.000000	99.781197
2601.000000	99.781303
2600.000000	99.781355
2599.000000	99.781320
2598.000000	99.781190
2597.000000	99.781004
2596.000000	99.780827
2595.000000	99.780714
2594.000000	99.780688
2593.000000	99.780733
2592.000000	99.780800
2591.000000	99.780843
2590.000000	99.780849
2589.000000	99.780839
2588.000000	99.780826
2587.000000	99.780803
2586.000000	99.780776
2585.000000	99.780778
2584.000000	99.780834
2583.000000	99.780911
2582.000000	99.780913
2581.000000	99.780753
2580.000000	99.780423
2579.000000	99.780001
2578.000000	99.779622
2577.000000	99.779406
2576.000000	99.779354
2575.000000	99.779297
2574.000000	99.779056
2573.000000	99.778701
2572.000000	99.778526
2571.000000	99.778694
2570.000000	99.778996
2569.000000	99.779055
2568.000000	99.778688
2567.000000	99.777986
2566.000000	99.777199
2565.000000	99.776640
2564.000000	99.776548
2563.000000	99.776867
2562.000000	99.777153
2561.000000	99.776975
2560.000000	99.776381
2559.000000	99.775893
2558.000000	99.775969
2557.000000	99.776557
2556.000000	99.777126
2555.000000	99.777124
2554.000000	99.776455
2553.000000	99.775602
2552.000000	99.775180
2551.000000	99.775209
2550.000000	99.774979
2549.000000	99.773836
2548.000000	99.772034
2547.000000	99.770583
2546.000000	99.770120
2545.000000	99.770330
2544.000000	99.770421
2543.000000	99.770036
2542.000000	99.769526
2541.000000	99.769421
2540.000000	99.769898
2539.000000	99.770737
2538.000000	99.771638
2537.000000	99.772485
2536.000000	99.773334
2535.000000	99.774225
2534.000000	99.775053
2533.000000	99.775613
2532.000000	99.775727
2531.000000	99.775365
2530.000000	99.774735
2529.000000	99.774236
2528.000000	99.774164
2527.000000	99.774416
2526.000000	99.774625
2525.000000	99.774648
2524.000000	99.774785
2523.000000	99.775347
2522.000000	99.776167
2521.000000	99.776727
2520.000000	99.776767
2519.000000	99.776554
2518.000000	99.776591
2517.000000	99.777097
2516.000000	99.777898
2515.000000	99.778675
2514.000000	99.779256
2513.000000	99.779702
2512.000000	99.780149
2511.000000	99.780632
2510.000000	99.781012
2509.000000	99.781146
2508.000000	99.781080
2507.000000	99.781040
2506.000000	99.781224
2505.000000	99.781628
2504.000000	99.782115
2503.000000	99.782553
2502.000000	99.782903
2501.000000	99.783197
2500.000000	99.783480
2499.000000	99.783787
2498.000000	99.784136
2497.000000	99.784529
2496.000000	99.784949
2495.000000	99.785366
2494.000000	99.785761
2493.000000	99.786144
2492.000000	99.786552
2491.000000	99.787018
2490.000000	99.787541
2489.000000	99.788096
2488.000000	99.788662
2487.000000	99.789222
2486.000000	99.789760
2485.000000	99.790262
2484.000000	99.790731
2483.000000	99.791195
2482.000000	99.791689
2481.000000	99.792224
2480.000000	99.792792
2479.000000	99.793372
2478.000000	99.793938
2477.000000	99.794468
2476.000000	99.794952
2475.000000	99.795400
2474.000000	99.795857
2473.000000	99.796380
2472.000000	99.796992
2471.000000	99.797670
2470.000000	99.798361
2469.000000	99.799024
2468.000000	99.799655
2467.000000	99.800266
2466.000000	99.800886
2465.000000	99.801534
2464.000000	99.802202
2463.000000	99.802852
2462.000000	99.803464
2461.000000	99.804066
2460.000000	99.804724
2459.000000	99.805478
2458.000000	99.806306
2457.000000	99.807143
2456.000000	99.807961
2455.000000	99.808796
2454.000000	99.809680
2453.000000	99.810522
2452.000000	99.811155
2451.000000	99.811531
2450.000000	99.811828
2449.000000	99.812264
2448.000000	99.812844
2447.000000	99.813384
2446.000000	99.813800
2445.000000	99.814265
2444.000000	99.815026
2443.000000	99.816158
2442.000000	99.817522
2441.000000	99.818887
2440.000000	99.820039
2439.000000	99.820847
2438.000000	99.821307
2437.000000	99.821501
2436.000000	99.821493
2435.000000	99.821395
2434.000000	99.821542
2433.000000	99.822349
2432.000000	99.823823
2431.000000	99.825295
2430.000000	99.825913
2429.000000	99.825433
2428.000000	99.824362
2427.000000	99.823355
2426.000000	99.822719
2425.000000	99.822471
2424.000000	99.822611
2423.000000	99.823210
2422.000000	99.824360
2421.000000	99.826148
2420.000000	99.828469
2419.000000	99.830754
2418.000000	99.832178
2417.000000	99.832404
2416.000000	99.831979
2415.000000	99.831770
2414.000000	99.832033
2413.000000	99.832339
2412.000000	99.832326
2411.000000	99.832124
2410.000000	99.832017
2409.000000	99.832045
2408.000000	99.832082
2407.000000	99.831958
2406.000000	99.831380
2405.000000	99.830130
2404.000000	99.828681
2403.000000	99.828246
2402.000000	99.829667
2401.000000	99.832404
2400.000000	99.834945
2399.000000	99.836413
2398.000000	99.837175
2397.000000	99.837820
2396.000000	99.838209
2395.000000	99.837970
2394.000000	99.837412
2393.000000	99.837251
2392.000000	99.837595
2391.000000	99.837845
2390.000000	99.837575
2389.000000	99.836870
2388.000000	99.835681
2387.000000	99.833604
2386.000000	99.830635
2385.000000	99.827714
2384.000000	99.826074
2383.000000	99.826054
2382.000000	99.827050
2381.000000	99.828318
2380.000000	99.829524
2379.000000	99.830577
2378.000000	99.831289
2377.000000	99.831487
2376.000000	99.831299
2375.000000	99.831080
2374.000000	99.831023
2373.000000	99.830953
2372.000000	99.830592
2371.000000	99.829955
2370.000000	99.829396
2369.000000	99.829226
2368.000000	99.829400
2367.000000	99.829663
2366.000000	99.829869
2365.000000	99.830033
2364.000000	99.830140
2363.000000	99.830106
2362.000000	99.829919
2361.000000	99.829677
2360.000000	99.829453
2359.000000	99.829227
2358.000000	99.828990
2357.000000	99.828800
2356.000000	99.828695
2355.000000	99.828642
2354.000000	99.828589
2353.000000	99.828513
2352.000000	99.828417
2351.000000	99.828311
2350.000000	99.828201
2349.000000	99.828097
2348.000000	99.828004
2347.000000	99.827920
2346.000000	99.827839
2345.000000	99.827750
2344.000000	99.827653
2343.000000	99.827551
2342.000000	99.827449
2341.000000	99.827343
2340.000000	99.827224
2339.000000	99.827086
2338.000000	99.826927
2337.000000	99.826750
2336.000000	99.826557
2335.000000	99.826349
2334.000000	99.826140
2333.000000	99.825947
2332.000000	99.825777
2331.000000	99.825626
2330.000000	99.825500
2329.000000	99.825412
2328.000000	99.825346
2327.000000	99.825256
2326.000000	99.825112
2325.000000	99.824930
2324.000000	99.824735
2323.000000	99.824508
2322.000000	99.824221
2321.000000	99.823891
2320.000000	99.823571
2319.000000	99.823312
2318.000000	99.823137
2317.000000	99.823029
2316.000000	99.822927
2315.000000	99.822740
2314.000000	99.822407
2313.000000	99.821935
2312.000000	99.821425
2311.000000	99.821013
2310.000000	99.820787
2309.000000	99.820756
2308.000000	99.820842
2307.000000	99.820911
2306.000000	99.820855
2305.000000	99.820657
2304.000000	99.820386
2303.000000	99.820105
2302.000000	99.819804
2301.000000	99.819464
2300.000000	99.819143
2299.000000	99.818936
2298.000000	99.818845
2297.000000	99.818768
2296.000000	99.818612
2295.000000	99.818359
2294.000000	99.818039
2293.000000	99.817676
2292.000000	99.817306
2291.000000	99.816993
2290.000000	99.816783
2289.000000	99.816657
2288.000000	99.816524
2287.000000	99.816278
2286.000000	99.815889
2285.000000	99.815402
2284.000000	99.814886
2283.000000	99.814388
2282.000000	99.813942
2281.000000	99.813570
2280.000000	99.813271
2279.000000	99.812998
2278.000000	99.812691
2277.000000	99.812312
2276.000000	99.811855
2275.000000	99.811325
2274.000000	99.810737
2273.000000	99.810142
2272.000000	99.809629
2271.000000	99.809237
2270.000000	99.808906
2269.000000	99.808541
2268.000000	99.808108
2267.000000	99.807638
2266.000000	99.807179
2265.000000	99.806751
2264.000000	99.806333
2263.000000	99.805880
2262.000000	99.805377
2261.000000	99.804842
2260.000000	99.804313
2259.000000	99.803827
2258.000000	99.803400
2257.000000	99.803026
2256.000000	99.802672
2255.000000	99.802311
2254.000000	99.801932
2253.000000	99.801525
2252.000000	99.801078
2251.000000	99.800578
2250.000000	99.800033
2249.000000	99.799484
2248.000000	99.798988
2247.000000	99.798587
2246.000000	99.798272
2245.000000	99.797995
2244.000000	99.797712
2243.000000	99.797415
2242.000000	99.797118
2241.000000	99.796831
2240.000000	99.796552
2239.000000	99.796269
2238.000000	99.795975
2237.000000	99.795665
2236.000000	99.795344
2235.000000	99.795026
2234.000000	99.794737
2233.000000	99.794501
2232.000000	99.794319
2231.000000	99.794156
2230.000000	99.793966
2229.000000	99.793725
2228.000000	99.793445
2227.000000	99.793158
2226.000000	99.792898
2225.000000	99.792682
2224.000000	99.792523
2223.000000	99.792431
2222.000000	99.792402
2221.000000	99.792398
2220.000000	99.792369
2219.000000	99.792299
2218.000000	99.792228
2217.000000	99.792184
2216.000000	99.792109
2215.000000	99.791902
2214.000000	99.791529
2213.000000	99.791106
2212.000000	99.790839
2211.000000	99.790842
2210.000000	99.791092
2209.000000	99.791445
2208.000000	99.791728
2207.000000	99.791832
2206.000000	99.791745
2205.000000	99.791562
2204.000000	99.791431
2203.000000	99.791431
2202.000000	99.791527
2201.000000	99.791607
2200.000000	99.791566
2199.000000	99.791364
2198.000000	99.791036
2197.000000	99.790664
2196.000000	99.790310
2195.000000	99.789979
2194.000000	99.789711
2193.000000	99.789666
2192.000000	99.790015
2191.000000	99.790734
2190.000000	99.791579
2189.000000	99.792329
2188.000000	99.792944
2187.000000	99.793427
2186.000000	99.793672
2185.000000	99.793607
2184.000000	99.793421
2183.000000	99.793467
2182.000000	99.793868
2181.000000	99.794326
2180.000000	99.794399
2179.000000	99.793952
2178.000000	99.793294
2177.000000	99.792927
2176.000000	99.793149
2175.000000	99.793859
2174.000000	99.794658
2173.000000	99.795139
2172.000000	99.795140
2171.000000	99.794734
2170.000000	99.794038
2169.000000	99.793157
2168.000000	99.792380
2167.000000	99.792180
2166.000000	99.792836
2165.000000	99.794075
2164.000000	99.795294
2163.000000	99.796228
2162.000000	99.797201
2161.000000	99.798575
2160.000000	99.800149
2159.000000	99.801243
2158.000000	99.801355
2157.000000	99.800551
2156.000000	99.799346
2155.000000	99.798341
2154.000000	99.797876
2153.000000	99.797926
2152.000000	99.798245
2151.000000	99.798648
2150.000000	99.799181
2149.000000	99.799932
2148.000000	99.800734
2147.000000	99.801257
2146.000000	99.801390
2145.000000	99.801381
2144.000000	99.801543
2143.000000	99.801930
2142.000000	99.802387
2141.000000	99.802807
2140.000000	99.803191
2139.000000	99.803526
2138.000000	99.803783
2137.000000	99.804014
2136.000000	99.804328
2135.000000	99.804724
2134.000000	99.805054
2133.000000	99.805210
2132.000000	99.805278
2131.000000	99.805468
2130.000000	99.805895
2129.000000	99.806512
2128.000000	99.807232
2127.000000	99.808020
2126.000000	99.808835
2125.000000	99.809541
2124.000000	99.809975
2123.000000	99.810092
2122.000000	99.810054
2121.000000	99.810157
2120.000000	99.810551
2119.000000	99.811117
2118.000000	99.811636
2117.000000	99.812040
2116.000000	99.812397
2115.000000	99.812714
2114.000000	99.812970
2113.000000	99.813348
2112.000000	99.814165
2111.000000	99.815385
2110.000000	99.816410
2109.000000	99.816624
2108.000000	99.816077
2107.000000	99.815453
2106.000000	99.815394
2105.000000	99.816026
2104.000000	99.817146
2103.000000	99.818520
2102.000000	99.819915
2101.000000	99.821098
2100.000000	99.822002
2099.000000	99.822811
2098.000000	99.823757
2097.000000	99.824903
2096.000000	99.826131
2095.000000	99.827213
2094.000000	99.827933
2093.000000	99.828357
2092.000000	99.828957
2091.000000	99.830117
2090.000000	99.831432
2089.000000	99.831903
2088.000000	99.830999
2087.000000	99.829235
2086.000000	99.827510
2085.000000	99.826203
2084.000000	99.825220
2083.000000	99.824636
2082.000000	99.824817
2081.000000	99.825919
2080.000000	99.827610
2079.000000	99.829374
2078.000000	99.830839
2077.000000	99.831791
2076.000000	99.832183
2075.000000	99.832263
2074.000000	99.832567
2073.000000	99.833542
2072.000000	99.835058
2071.000000	99.836320
2070.000000	99.836550
2069.000000	99.835944
2068.000000	99.835775
2067.000000	99.837188
2066.000000	99.839951
2065.000000	99.842607
2064.000000	99.844014
2063.000000	99.844287
2062.000000	99.844136
2061.000000	99.843915
2060.000000	99.843701
2059.000000	99.843804
2058.000000	99.844503
2057.000000	99.845453
2056.000000	99.846010
2055.000000	99.846122
2054.000000	99.846346
2053.000000	99.846986
2052.000000	99.847679
2051.000000	99.847937
2050.000000	99.847610
2049.000000	99.846748
2048.000000	99.845504
2047.000000	99.844334
2046.000000	99.843840
2045.000000	99.844160
2044.000000	99.844764
2043.000000	99.845052
2042.000000	99.844969
2041.000000	99.844852
2040.000000	99.844906
2039.000000	99.845034
2038.000000	99.845048
2037.000000	99.844840
2036.000000	99.844429
2035.000000	99.843963
2034.000000	99.843568
2033.000000	99.843157
2032.000000	99.842523
2031.000000	99.841683
2030.000000	99.841008
2029.000000	99.840835
2028.000000	99.841102
2027.000000	99.841419
2026.000000	99.841455
2025.000000	99.841161
2024.000000	99.840639
2023.000000	99.840026
2022.000000	99.839433
2021.000000	99.838886
2020.000000	99.838299
2019.000000	99.837602
2018.000000	99.836861
2017.000000	99.836231
2016.000000	99.835768
2015.000000	99.835381
2014.000000	99.834956
2013.000000	99.834482
2012.000000	99.834015
2011.000000	99.833589
2010.000000	99.833199
2009.000000	99.832824
2008.000000	99.832444
2007.000000	99.832043
2006.000000	99.831606
2005.000000	99.831150
2004.000000	99.830720
2003.000000	99.830363
2002.000000	99.830094
2001.000000	99.829877
2000.000000	99.829632
1999.000000	99.829297
1998.000000	99.828874
1997.000000	99.828431
1996.000000	99.828032
1995.000000	99.827672
1994.000000	99.827286
1993.000000	99.826821
1992.000000	99.826283
1991.000000	99.825767
1990.000000	99.825403
1989.000000	99.825271
1988.000000	99.825307
1987.000000	99.825318
1986.000000	99.825137
1985.000000	99.824733
1984.000000	99.824185
1983.000000	99.823596
1982.000000	99.823075
1981.000000	99.822722
1980.000000	99.822552
1979.000000	99.822433
1978.000000	99.822240
1977.000000	99.822037
1976.000000	99.821976
1975.000000	99.822035
1974.000000	99.822024
1973.000000	99.821848
1972.000000	99.821601
1971.000000	99.821387
1970.000000	99.821223
1969.000000	99.821151
1968.000000	99.821203
1967.000000	99.821185
1966.000000	99.820778
1965.000000	99.820005
1964.000000	99.819394
1963.000000	99.819420
1962.000000	99.819888
1961.000000	99.820099
1960.000000	99.819597
1959.000000	99.818612
1958.000000	99.817740
1957.000000	99.817322
1956.000000	99.817194
1955.000000	99.816966
1954.000000	99.816457
1953.000000	99.815778
1952.000000	99.814996
1951.000000	99.813936
1950.000000	99.812540
1949.000000	99.811236
1948.000000	99.810545
1947.000000	99.810287
1946.000000	99.809625
1945.000000	99.808129
1944.000000	99.806434
1943.000000	99.805538
1942.000000	99.805607
1941.000000	99.805897
1940.000000	99.805712
1939.000000	99.805013
1938.000000	99.804172
1937.000000	99.803538
1936.000000	99.803214
1935.000000	99.803038
1934.000000	99.802743
1933.000000	99.802208
1932.000000	99.801583
1931.000000	99.801077
1930.000000	99.800721
1929.000000	99.800508
1928.000000	99.800571
1927.000000	99.800953
1926.000000	99.801239
1925.000000	99.800724
1924.000000	99.799085
1923.000000	99.796729
1922.000000	99.794448
1921.000000	99.792673
1920.000000	99.791231
1919.000000	99.789780
1918.000000	99.788287
1917.000000	99.787126
1916.000000	99.786635
1915.000000	99.786690
1914.000000	99.786793
1913.000000	99.786436
1912.000000	99.785400
1911.000000	99.783821
1910.000000	99.782088
1909.000000	99.780688
1908.000000	99.779916
1907.000000	99.779613
1906.000000	99.779197
1905.000000	99.778064
1904.000000	99.776022
1903.000000	99.773365
1902.000000	99.770704
1901.000000	99.768651
1900.000000	99.767458
1899.000000	99.766929
1898.000000	99.766617
1897.000000	99.766235
1896.000000	99.765736
1895.000000	99.765015
1894.000000	99.763845
1893.000000	99.762240
1892.000000	99.760648
1891.000000	99.759595
1890.000000	99.759181
1889.000000	99.758982
1888.000000	99.758475
1887.000000	99.757494
1886.000000	99.756203
1885.000000	99.754830
1884.000000	99.753472
1883.000000	99.752070
1882.000000	99.750599
1881.000000	99.749258
1880.000000	99.748329
1879.000000	99.747896
1878.000000	99.747818
1877.000000	99.747949
1876.000000	99.748240
1875.000000	99.748561
1874.000000	99.748591
1873.000000	99.748077
1872.000000	99.747136
1871.000000	99.746204
1870.000000	99.745710
1869.000000	99.745779
1868.000000	99.746192
1867.000000	99.746583
1866.000000	99.746722
1865.000000	99.746634
1864.000000	99.746492
1863.000000	99.746394
1862.000000	99.746294
1861.000000	99.746223
1860.000000	99.746476
1859.000000	99.747315
1858.000000	99.748548
1857.000000	99.749570
1856.000000	99.749968
1855.000000	99.749919
1854.000000	99.750010
1853.000000	99.750662
1852.000000	99.751775
1851.000000	99.752884
1850.000000	99.753625
1849.000000	99.753976
1848.000000	99.754157
1847.000000	99.754442
1846.000000	99.755033
1845.000000	99.756013
1844.000000	99.757226
1843.000000	99.758304
1842.000000	99.759023
1841.000000	99.759471
1840.000000	99.759884
1839.000000	99.760415
1838.000000	99.761037
1837.000000	99.761663
1836.000000	99.762319
1835.000000	99.763129
1834.000000	99.764161
1833.000000	99.765294
1832.000000	99.766248
1831.000000	99.766777
1830.000000	99.766892
1829.000000	99.766875
1828.000000	99.766931
1827.000000	99.766999
1826.000000	99.766953
1825.000000	99.766831
1824.000000	99.766872
1823.000000	99.767284
1822.000000	99.768041
1821.000000	99.768951
1820.000000	99.769802
1819.000000	99.770452
1818.000000	99.770846
1817.000000	99.771054
1816.000000	99.771284
1815.000000	99.771663
1814.000000	99.772028
1813.000000	99.772094
1812.000000	99.771915
1811.000000	99.771946
1810.000000	99.772445
1809.000000	99.773067
1808.000000	99.773363
1807.000000	99.773344
1806.000000	99.773344
1805.000000	99.773575
1804.000000	99.774045
1803.000000	99.774785
1802.000000	99.775937
1801.000000	99.777447
1800.000000	99.778844
1799.000000	99.779592
1798.000000	99.779588
1797.000000	99.779201
1796.000000	99.779019
1795.000000	99.779376
1794.000000	99.780204
1793.000000	99.781141
1792.000000	99.781887
1791.000000	99.782560
1790.000000	99.783439
1789.000000	99.784632
1788.000000	99.786054
1787.000000	99.787482
1786.000000	99.788675
1785.000000	99.789627
1784.000000	99.790644
1783.000000	99.791966
1782.000000	99.793435
1781.000000	99.794653
1780.000000	99.795424
1779.000000	99.796004
1778.000000	99.796773
1777.000000	99.797877
1776.000000	99.799246
1775.000000	99.800734
1774.000000	99.802132
1773.000000	99.803051
1772.000000	99.803392
1771.000000	99.803986
1770.000000	99.805611
1769.000000	99.808005
1768.000000	99.810288
1767.000000	99.811953
1766.000000	99.813303
1765.000000	99.814834
1764.000000	99.816617
1763.000000	99.818310
1762.000000	99.819593
1761.000000	99.820694
1760.000000	99.822262
1759.000000	99.824668
1758.000000	99.827617
1757.000000	99.830305
1756.000000	99.832214
1755.000000	99.833805
1754.000000	99.835748
1753.000000	99.837858
1752.000000	99.839206
1751.000000	99.839444
1750.000000	99.839765
1749.000000	99.841472
1748.000000	99.844301
1747.000000	99.847068
1746.000000	99.849054
1745.000000	99.850284
1744.000000	99.851094
1743.000000	99.851908
1742.000000	99.852979
1741.000000	99.854168
1740.000000	99.855199
1739.000000	99.856098
1738.000000	99.857101
1737.000000	99.858105
1736.000000	99.858810
1735.000000	99.858961
1734.000000	99.858744
1733.000000	99.858911
1732.000000	99.859631
1731.000000	99.860447
1730.000000	99.861066
1729.000000	99.861482
1728.000000	99.861794
1727.000000	99.862117
1726.000000	99.862516
1725.000000	99.862952
1724.000000	99.863342
1723.000000	99.863663
1722.000000	99.863948
1721.000000	99.864194
1720.000000	99.864336
1719.000000	99.864318
1718.000000	99.864172
1717.000000	99.864010
1716.000000	99.863911
1715.000000	99.863848
1714.000000	99.863783
1713.000000	99.863697
1712.000000	99.863586
1711.000000	99.863449
1710.000000	99.863280
1709.000000	99.863092
1708.000000	99.862898
1707.000000	99.862707
1706.000000	99.862522
1705.000000	99.862333
1704.000000	99.862136
1703.000000	99.861928
1702.000000	99.861712
1701.000000	99.861491
1700.000000	99.861272
1699.000000	99.861062
1698.000000	99.860870
1697.000000	99.860700
1696.000000	99.860546
1695.000000	99.860393
1694.000000	99.860223
1693.000000	99.860032
1692.000000	99.859826
1691.000000	99.859608
1690.000000	99.859384
1689.000000	99.859156
1688.000000	99.858923
1687.000000	99.858686
1686.000000	99.858447
1685.000000	99.858208
1684.000000	99.857967
1683.000000	99.857724
1682.000000	99.857478
1681.000000	99.857229
1680.000000	99.856983
1679.000000	99.856746
1678.000000	99.856528
1677.000000	99.856332
1676.000000	99.856155
1675.000000	99.855991
1674.000000	99.855833
1673.000000	99.855669
1672.000000	99.855488
1671.000000	99.855276
1670.000000	99.855033
1669.000000	99.854767
1668.000000	99.854488
1667.000000	99.854203
1666.000000	99.853905
1665.000000	99.853590
1664.000000	99.853252
1663.000000	99.852895
1662.000000	99.852523
1661.000000	99.852139
1660.000000	99.851743
1659.000000	99.851331
1658.000000	99.850902
1657.000000	99.850456
1656.000000	99.849991
1655.000000	99.849503
1654.000000	99.848988
1653.000000	99.848448
1652.000000	99.847899
1651.000000	99.847357
1650.000000	99.846833
1649.000000	99.846334
1648.000000	99.845863
1647.000000	99.845403
1646.000000	99.844942
1645.000000	99.844504
1644.000000	99.844111
1643.000000	99.843741
1642.000000	99.843348
1641.000000	99.842905
1640.000000	99.842445
1639.000000	99.842044
1638.000000	99.841764
1637.000000	99.841573
1636.000000	99.841271
1635.000000	99.840712
1634.000000	99.840066
1633.000000	99.839569
1632.000000	99.839207
1631.000000	99.838807
1630.000000	99.838203
1629.000000	99.837425
1628.000000	99.836691
1627.000000	99.836150
1626.000000	99.835755
1625.000000	99.835498
1624.000000	99.835504
1623.000000	99.835776
1622.000000	99.836073
1621.000000	99.836177
1620.000000	99.836013
1619.000000	99.835545
1618.000000	99.834771
1617.000000	99.833989
1616.000000	99.833860
1615.000000	99.834609
1614.000000	99.835716
1613.000000	99.836599
1612.000000	99.837128
1611.000000	99.837465
1610.000000	99.837756
1609.000000	99.837944
1608.000000	99.837965
1607.000000	99.838033
1606.000000	99.838547
1605.000000	99.839599
1604.000000	99.840771
1603.000000	99.841640
1602.000000	99.842259
1601.000000	99.842874
1600.000000	99.843413
1599.000000	99.843686
1598.000000	99.843948
1597.000000	99.844737
1596.000000	99.846121
1595.000000	99.847525
1594.000000	99.848537
1593.000000	99.849357
1592.000000	99.850084
1591.000000	99.850229
1590.000000	99.849482
1589.000000	99.848536
1588.000000	99.848494
1587.000000	99.849721
1586.000000	99.851729
1585.000000	99.853882
1584.000000	99.855763
1583.000000	99.857174
1582.000000	99.858307
1581.000000	99.859557
1580.000000	99.860900
1579.000000	99.861862
1578.000000	99.862339
1577.000000	99.863032
1576.000000	99.864629
1575.000000	99.866728
1574.000000	99.868426
1573.000000	99.869322
1572.000000	99.869468
1571.000000	99.869220
1570.000000	99.869376
1569.000000	99.871028
1568.000000	99.873799
1567.000000	99.875901
1566.000000	99.876254
1565.000000	99.875387
1564.000000	99.874364
1563.000000	99.873631
1562.000000	99.873074
1561.000000	99.873484
1560.000000	99.875990
1559.000000	99.879107
1558.000000	99.880604
1557.000000	99.880626
1556.000000	99.879301
1555.000000	99.875745
1554.000000	99.870725
1553.000000	99.866197
1552.000000	99.863904
1551.000000	99.863781
1550.000000	99.864658
1549.000000	99.865387
1548.000000	99.865907
1547.000000	99.866741
1546.000000	99.868096
1545.000000	99.869444
1544.000000	99.869951
1543.000000	99.869053
1542.000000	99.866562
1541.000000	99.862989
1540.000000	99.860413
1539.000000	99.860138
1538.000000	99.860403
1537.000000	99.859305
1536.000000	99.856544
1535.000000	99.852570
1534.000000	99.847839
1533.000000	99.843371
1532.000000	99.840661
1531.000000	99.839979
1530.000000	99.839993
1529.000000	99.839230
1528.000000	99.837460
1527.000000	99.835826
1526.000000	99.835165
1525.000000	99.834733
1524.000000	99.833545
1523.000000	99.832055
1522.000000	99.831263
1521.000000	99.830895
1520.000000	99.829858
1519.000000	99.827666
1518.000000	99.824402
1517.000000	99.820496
1516.000000	99.817158
1515.000000	99.815663
1514.000000	99.816076
1513.000000	99.817347
1512.000000	99.818246
1511.000000	99.818355
1510.000000	99.818047
1509.000000	99.817768
1508.000000	99.817641
1507.000000	99.818073
1506.000000	99.819707
1505.000000	99.821995
1504.000000	99.823710
1503.000000	99.824400
1502.000000	99.824499
1501.000000	99.824235
1500.000000	99.823221
1499.000000	99.821081
1498.000000	99.818538
1497.000000	99.816797
1496.000000	99.816233
1495.000000	99.816332
1494.000000	99.816860
1493.000000	99.818270
1492.000000	99.820829
1491.000000	99.823505
1490.000000	99.824523
1489.000000	99.823954
1488.000000	99.824023
1487.000000	99.825847
1486.000000	99.828068
1485.000000	99.829039
1484.000000	99.828481
1483.000000	99.827329
1482.000000	99.826905
1481.000000	99.827965
1480.000000	99.830289
1479.000000	99.833033
1478.000000	99.835405
1477.000000	99.836941
1476.000000	99.837637
1475.000000	99.837826
1474.000000	99.837962
1473.000000	99.838710
1472.000000	99.840712
1471.000000	99.843692
1470.000000	99.846346
1469.000000	99.847661
1468.000000	99.847592
1467.000000	99.846741
1466.000000	99.845889
1465.000000	99.845796
1464.000000	99.847064
1463.000000	99.849710
1462.000000	99.852877
1461.000000	99.855600
1460.000000	99.857625
1459.000000	99.859334
1458.000000	99.860204
1457.000000	99.857982
1456.000000	99.853156
1455.000000	99.849780
1454.000000	99.849497
1453.000000	99.850687
1452.000000	99.851364
1451.000000	99.850961
1450.000000	99.850430
1449.000000	99.850158
1448.000000	99.849023
1447.000000	99.846051
1446.000000	99.842280
1445.000000	99.839737
1444.000000	99.839582
1443.000000	99.841688
1442.000000	99.844696
1441.000000	99.846775
1440.000000	99.846990
1439.000000	99.845984
1438.000000	99.845287
1437.000000	99.845697
1436.000000	99.846713
1435.000000	99.847794
1434.000000	99.848840
1433.000000	99.849447
1432.000000	99.848932
1431.000000	99.847126
1430.000000	99.845050
1429.000000	99.843999
1428.000000	99.844086
1427.000000	99.844385
1426.000000	99.844352
1425.000000	99.844519
1424.000000	99.845803
1423.000000	99.848709
1422.000000	99.852996
1421.000000	99.857946
1420.000000	99.862212
1419.000000	99.864339
1418.000000	99.864737
1417.000000	99.864892
1416.000000	99.865278
1415.000000	99.865762
1414.000000	99.866534
1413.000000	99.867952
1412.000000	99.869994
1411.000000	99.872097
1410.000000	99.873628
1409.000000	99.874404
1408.000000	99.874979
1407.000000	99.876268
1406.000000	99.878692
1405.000000	99.881477
1404.000000	99.883098
1403.000000	99.882984
1402.000000	99.881995
1401.000000	99.881340
1400.000000	99.881721
1399.000000	99.883276
1398.000000	99.885820
1397.000000	99.888842
1396.000000	99.891414
1395.000000	99.892544
1394.000000	99.892338
1393.000000	99.892164
1392.000000	99.892992
1391.000000	99.894511
1390.000000	99.895794
1389.000000	99.896347
1388.000000	99.896622
1387.000000	99.897355
1386.000000	99.898379
1385.000000	99.898760
1384.000000	99.898081
1383.000000	99.896952
1382.000000	99.896277
1381.000000	99.896268
1380.000000	99.896344
1379.000000	99.895887
1378.000000	99.894990
1377.000000	99.894446
1376.000000	99.894943
1375.000000	99.896301
1374.000000	99.897450
1373.000000	99.897502
1372.000000	99.896696
1371.000000	99.895977
1370.000000	99.895976
1369.000000	99.896611
1368.000000	99.897369
1367.000000	99.897882
1366.000000	99.898075
1365.000000	99.897906
1364.000000	99.897322
1363.000000	99.896525
1362.000000	99.895929
1361.000000	99.895671
1360.000000	99.895509
1359.000000	99.895264
1358.000000	99.895042
1357.000000	99.894990
1356.000000	99.895055
1355.000000	99.895109
1354.000000	99.895162
1353.000000	99.895311
1352.000000	99.895608
1351.000000	99.895998
1350.000000	99.896397
1349.000000	99.896795
1348.000000	99.897225
1347.000000	99.897638
1346.000000	99.897797
1345.000000	99.897415
1344.000000	99.896525
1343.000000	99.895653
1342.000000	99.895476
1341.000000	99.896251
1340.000000	99.897524
1339.000000	99.898394
1338.000000	99.898366
1337.000000	99.897703
1336.000000	99.897055
1335.000000	99.896882
1334.000000	99.897118
1333.000000	99.897301
1332.000000	99.897142
1331.000000	99.896946
1330.000000	99.897251
1329.000000	99.898050
1328.000000	99.898689
1327.000000	99.898679
1326.000000	99.898239
1325.000000	99.897843
1324.000000	99.897543
1323.000000	99.897126
1322.000000	99.896641
1321.000000	99.896401
1320.000000	99.896582
1319.000000	99.897075
1318.000000	99.897633
1317.000000	99.897978
1316.000000	99.897861
1315.000000	99.897276
1314.000000	99.896623
1313.000000	99.896452
1312.000000	99.896943
1311.000000	99.897719
1310.000000	99.898181
1309.000000	99.898021
1308.000000	99.897389
1307.000000	99.896661
1306.000000	99.896100
1305.000000	99.895767
1304.000000	99.895728
1303.000000	99.896165
1302.000000	99.897128
1301.000000	99.898191
1300.000000	99.898639
1299.000000	99.898143
1298.000000	99.897127
1297.000000	99.896239
1296.000000	99.895526
1295.000000	99.894525
1294.000000	99.893016
1293.000000	99.891442
1292.000000	99.890539
1291.000000	99.890608
1290.000000	99.891129
1289.000000	99.891153
1288.000000	99.890265
1287.000000	99.889148
1286.000000	99.888903
1285.000000	99.889692
1284.000000	99.890490
1283.000000	99.890471
1282.000000	99.890156
1281.000000	99.890626
1280.000000	99.891933
1279.000000	99.892918
1278.000000	99.892457
1277.000000	99.890367
1276.000000	99.887313
1275.000000	99.884436
1274.000000	99.882916
1273.000000	99.883180
1272.000000	99.884342
1271.000000	99.884765
1270.000000	99.883437
1269.000000	99.880823
1268.000000	99.878571
1267.000000	99.878352
1266.000000	99.880435
1265.000000	99.883251
1264.000000	99.885031
1263.000000	99.885893
1262.000000	99.887316
1261.000000	99.889252
1260.000000	99.889224
1259.000000	99.885264
1258.000000	99.878600
1257.000000	99.872317
1256.000000	99.868325
1255.000000	99.866628
1254.000000	99.866498
1253.000000	99.866840
1252.000000	99.865947
1251.000000	99.862637
1250.000000	99.858035
1249.000000	99.854974
1248.000000	99.854966
1247.000000	99.856252
1246.000000	99.855315
1245.000000	99.850158
1244.000000	99.841959
1243.000000	99.833726
1242.000000	99.827495
1241.000000	99.822976
1240.000000	99.818855
1239.000000	99.814642
1238.000000	99.810645
1237.000000	99.806799
1236.000000	99.802670
1235.000000	99.798389
1234.000000	99.794363
1233.000000	99.789970
1232.000000	99.783685
1231.000000	99.774837
1230.000000	99.764448
1229.000000	99.754285
1228.000000	99.745874
1227.000000	99.740047
1226.000000	99.736082
1225.000000	99.731550
1224.000000	99.724398
1223.000000	99.714616
1222.000000	99.702258
1221.000000	99.684903
1220.000000	99.660210
1219.000000	99.631065
1218.000000	99.604686
1217.000000	99.585159
1216.000000	99.570126
1215.000000	99.556130
1214.000000	99.543171
1213.000000	99.531359
1212.000000	99.516815
1211.000000	99.495591
1210.000000	99.470070
1209.000000	99.446968
1208.000000	99.428974
1207.000000	99.412212
1206.000000	99.392518
1205.000000	99.370813
1204.000000	99.350763
1203.000000	99.333701
1202.000000	99.317864
1201.000000	99.301181
1200.000000	99.282989
1199.000000	99.263685
1198.000000	99.244334
1197.000000	99.226501
1196.000000	99.211239
1195.000000	99.197842
1194.000000	99.184272
1193.000000	99.169286
1192.000000	99.153598
1191.000000	99.138301
1190.000000	99.122416
1189.000000	99.103173
1188.000000	99.079379
1187.000000	99.053856
1186.000000	99.031281
1185.000000	99.013491
1184.000000	98.998010
1183.000000	98.981375
1182.000000	98.962920
1181.000000	98.944794
1180.000000	98.928940
1179.000000	98.914667
1178.000000	98.898874
1177.000000	98.878433
1176.000000	98.852916
1175.000000	98.825446
1174.000000	98.800312
1173.000000	98.779216
1172.000000	98.760250
1171.000000	98.740593
1170.000000	98.719321
1169.000000	98.697127
1168.000000	98.674365
1167.000000	98.650780
1166.000000	98.627235
1165.000000	98.606714
1164.000000	98.593018
1163.000000	98.588468
1162.000000	98.592597
1161.000000	98.602643
1160.000000	98.614910
1159.000000	98.625631
1158.000000	98.631211
1157.000000	98.628716
1156.000000	98.616905
1155.000000	98.597052
1154.000000	98.572735
1153.000000	98.548530
1152.000000	98.528403
1151.000000	98.514045
1150.000000	98.503318
1149.000000	98.490611
1148.000000	98.470631
1147.000000	98.443088
1146.000000	98.413441
1145.000000	98.388388
1144.000000	98.370504
1143.000000	98.357110
1142.000000	98.343270
1141.000000	98.325480
1140.000000	98.303537
1139.000000	98.279993
1138.000000	98.257465
1137.000000	98.235674
1136.000000	98.211711
1135.000000	98.184036
1134.000000	98.155393
1133.000000	98.130095
1132.000000	98.108543
1131.000000	98.086443
1130.000000	98.060309
1129.000000	98.032232
1128.000000	98.007699
1127.000000	97.989404
1126.000000	97.974625
1125.000000	97.958317
1124.000000	97.937222
1123.000000	97.910964
1122.000000	97.881180
1121.000000	97.850627
1120.000000	97.821869
1119.000000	97.795471
1118.000000	97.769934
1117.000000	97.744331
1116.000000	97.720366
1115.000000	97.700467
1114.000000	97.683886
1113.000000	97.665871
1112.000000	97.641525
1111.000000	97.610660
1110.000000	97.579005
1109.000000	97.554135
1108.000000	97.539111
1107.000000	97.529603
1106.000000	97.517939
1105.000000	97.500679
1104.000000	97.480973
1103.000000	97.463238
1102.000000	97.447827
1101.000000	97.432036
1100.000000	97.414236
1099.000000	97.395019
1098.000000	97.375615
1097.000000	97.357609
1096.000000	97.342699
1095.000000	97.330351
1094.000000	97.316848
1093.000000	97.299461
1092.000000	97.280713
1091.000000	97.265799
1090.000000	97.256660
1089.000000	97.251492
1088.000000	97.249105
1087.000000	97.249913
1086.000000	97.252555
1085.000000	97.253376
1084.000000	97.250402
1083.000000	97.245100
1082.000000	97.239227
1081.000000	97.232347
1080.000000	97.223573
1079.000000	97.213650
1078.000000	97.204010
1077.000000	97.195285
1076.000000	97.187769
1075.000000	97.181961
1074.000000	97.177441
1073.000000	97.171724
1072.000000	97.160802
1071.000000	97.140924
1070.000000	97.110757
1069.000000	97.072720
1068.000000	97.031598
1067.000000	96.991007
1066.000000	96.951999
1065.000000	96.915317
1064.000000	96.882324
1063.000000	96.851995
1062.000000	96.820152
1061.000000	96.785179
1060.000000	96.752155
1059.000000	96.726873
1058.000000	96.707126
1057.000000	96.684963
1056.000000	96.657065
1055.000000	96.627626
1054.000000	96.600279
1053.000000	96.572002
1052.000000	96.537260
1051.000000	96.494697
1050.000000	96.447698
1049.000000	96.401232
1048.000000	96.359411
1047.000000	96.322581
1046.000000	96.285516
1045.000000	96.242159
1044.000000	96.193326
1043.000000	96.146148
1042.000000	96.104553
1041.000000	96.064153
1040.000000	96.018813
1039.000000	95.968881
1038.000000	95.920055
1037.000000	95.876881
1036.000000	95.840607
1035.000000	95.811431
1034.000000	95.789468
1033.000000	95.773864
1032.000000	95.762641
1031.000000	95.753212
1030.000000	95.742987
1029.000000	95.731045
1028.000000	95.719572
1027.000000	95.712080
1026.000000	95.709854
1025.000000	95.711203
1024.000000	95.713406
1023.000000	95.713438
1022.000000	95.708007
1021.000000	95.696155
1020.000000	95.681781
1019.000000	95.670813
1018.000000	95.665790
1017.000000	95.665566
1016.000000	95.669246
1015.000000	95.676405
1014.000000	95.683417
1013.000000	95.684196
1012.000000	95.676631
1011.000000	95.665620
1010.000000	95.658047
1009.000000	95.656636
1008.000000	95.659659
1007.000000	95.664473
1006.000000	95.669773
1005.000000	95.675379
1004.000000	95.680755
1003.000000	95.684151
1002.000000	95.684562
1001.000000	95.684999
1000.000000	95.691128
999.000000	95.704439
998.000000	95.719322
997.000000	95.730329
996.000000	95.740007
995.000000	95.755179
994.000000	95.777445
993.000000	95.802485
992.000000	95.827765
991.000000	95.855207
990.000000	95.885687
989.000000	95.916312
988.000000	95.944841
987.000000	95.972767
986.000000	96.002667
985.000000	96.036108
984.000000	96.074751
983.000000	96.119054
982.000000	96.164621
981.000000	96.204493
980.000000	96.237641
979.000000	96.271453
978.000000	96.312997
977.000000	96.361055
976.000000	96.409781
975.000000	96.457549
974.000000	96.508238
973.000000	96.564798
972.000000	96.625268
971.000000	96.685530
970.000000	96.743539
969.000000	96.799929
968.000000	96.855842
967.000000	96.911245
966.000000	96.964909
965.000000	97.015502
964.000000	97.063050
963.000000	97.109561
962.000000	97.157483
961.000000	97.206754
960.000000	97.254055
959.000000	97.296514
958.000000	97.336207
957.000000	97.378900
956.000000	97.426936
955.000000	97.474944
954.000000	97.514786
953.000000	97.543974
952.000000	97.567270
951.000000	97.590608
950.000000	97.615320
949.000000	97.638201
948.000000	97.655273
947.000000	97.665640
946.000000	97.673891
945.000000	97.688407
944.000000	97.714371
943.000000	97.747754
942.000000	97.778580
941.000000	97.800782
940.000000	97.816630
939.000000	97.831603
938.000000	97.848272
937.000000	97.866203
936.000000	97.884143
935.000000	97.900032
934.000000	97.911887
933.000000	97.921304
932.000000	97.933587
931.000000	97.951504
930.000000	97.970994
929.000000	97.986221
928.000000	97.997193
927.000000	98.009076
926.000000	98.025230
925.000000	98.044512
924.000000	98.064961
923.000000	98.086453
922.000000	98.108822
921.000000	98.129927
920.000000	98.146932
919.000000	98.158629
918.000000	98.166372
917.000000	98.173518
916.000000	98.183409
915.000000	98.196415
914.000000	98.209299
913.000000	98.219099
912.000000	98.227736
911.000000	98.241473
910.000000	98.265377
909.000000	98.299065
908.000000	98.337663
907.000000	98.376160
906.000000	98.413242
905.000000	98.451222
904.000000	98.491973
903.000000	98.533420
902.000000	98.571347
901.000000	98.604282
900.000000	98.634237
899.000000	98.662442
898.000000	98.687671
897.000000	98.710557
896.000000	98.736448
895.000000	98.770795
894.000000	98.812986
893.000000	98.857241
892.000000	98.898141
891.000000	98.932487
890.000000	98.957677
889.000000	98.973194
888.000000	98.984554
887.000000	99.001653
886.000000	99.030184
885.000000	99.066299
884.000000	99.101565
883.000000	99.131744
882.000000	99.158898
881.000000	99.186324
880.000000	99.214322
879.000000	99.241103
878.000000	99.265076
877.000000	99.284899
876.000000	99.299582
875.000000	99.311182
874.000000	99.326117
873.000000	99.350056
872.000000	99.380666
871.000000	99.408496
870.000000	99.426989
869.000000	99.439332
868.000000	99.453498
867.000000	99.472474
866.000000	99.492374
865.000000	99.509210
864.000000	99.523765
863.000000	99.539465
862.000000	99.558643
861.000000	99.581915
860.000000	99.608509
859.000000	99.635296
858.000000	99.657295
857.000000	99.671184
856.000000	99.677716
855.000000	99.679991
854.000000	99.680352
853.000000	99.679711
852.000000	99.678615
851.000000	99.677666
850.000000	99.677512
849.000000	99.679451
848.000000	99.685545
847.000000	99.697026
846.000000	99.712298
845.000000	99.726801
844.000000	99.735294
843.000000	99.735247
842.000000	99.728915
841.000000	99.721377
840.000000	99.715175
839.000000	99.707204
838.000000	99.692209
837.000000	99.669295
836.000000	99.643869
835.000000	99.623310
834.000000	99.611437
833.000000	99.606523
832.000000	99.603623
831.000000	99.599680
830.000000	99.597836
829.000000	99.605080
828.000000	99.622401
827.000000	99.638557
826.000000	99.639023
825.000000	99.622150
824.000000	99.601460
823.000000	99.590256
822.000000	99.589166
821.000000	99.590971
820.000000	99.590772
819.000000	99.587072
818.000000	99.578296
817.000000	99.563410
816.000000	99.543500
815.000000	99.519059
814.000000	99.487712
813.000000	99.448180
812.000000	99.404556
811.000000	99.361767
810.000000	99.316357
809.000000	99.255819
808.000000	99.169204
807.000000	99.057451
806.000000	98.933380
805.000000	98.812745
804.000000	98.705034
803.000000	98.610852
802.000000	98.527021
801.000000	98.454906
800.000000	98.402840
799.000000	98.378390
798.000000	98.379323
797.000000	98.395130
796.000000	98.417160
795.000000	98.444245
794.000000	98.478297
793.000000	98.517467
792.000000	98.554580
791.000000	98.581230
790.000000	98.593793
789.000000	98.595976
788.000000	98.593652
787.000000	98.586184
786.000000	98.565545
785.000000	98.526549
784.000000	98.475685
783.000000	98.426877
782.000000	98.390421
781.000000	98.369273
780.000000	98.363310
779.000000	98.371462
778.000000	98.390262
777.000000	98.415585
776.000000	98.446415
775.000000	98.483071
774.000000	98.522363
773.000000	98.559592
772.000000	98.595736
771.000000	98.637123
770.000000	98.685702
769.000000	98.733506
768.000000	98.769368
767.000000	98.788921
766.000000	98.796584
765.000000	98.800301
764.000000	98.806069
763.000000	98.815775
762.000000	98.828066
761.000000	98.841073
760.000000	98.854142
759.000000	98.866564
758.000000	98.876734
757.000000	98.885203
756.000000	98.896968
755.000000	98.916521
754.000000	98.940721
753.000000	98.960939
752.000000	98.973304
751.000000	98.982905
750.000000	98.996405
749.000000	99.014437
748.000000	99.033684
747.000000	99.052838
746.000000	99.072891
745.000000	99.093744
744.000000	99.114558
743.000000	99.136779
742.000000	99.163375
741.000000	99.194646
740.000000	99.226714
739.000000	99.254335
738.000000	99.274292
737.000000	99.286886
736.000000	99.295971
735.000000	99.307328
734.000000	99.324727
733.000000	99.346461
732.000000	99.366681
731.000000	99.380598
730.000000	99.387672
729.000000	99.390090
728.000000	99.390459
727.000000	99.391548
726.000000	99.396055
725.000000	99.404958
724.000000	99.416534
723.000000	99.428072
722.000000	99.438253
721.000000	99.447201
720.000000	99.455220
719.000000	99.463168
718.000000	99.473464
717.000000	99.488000
716.000000	99.504102
715.000000	99.515230
714.000000	99.518579
713.000000	99.520613
712.000000	99.531098
711.000000	99.550628
710.000000	99.567469
709.000000	99.569269
708.000000	99.555952
707.000000	99.539407
706.000000	99.531580
705.000000	99.534542
704.000000	99.541075
703.000000	99.540853
702.000000	99.525858
701.000000	99.493462
700.000000	99.447197
699.000000	99.395290
698.000000	99.347588
697.000000	99.313335
696.000000	99.299425
695.000000	99.307140
694.000000	99.330569
693.000000	99.360465
692.000000	99.390176
691.000000	99.416525
690.000000	99.435885
689.000000	99.444569
688.000000	99.445306
687.000000	99.448680
686.000000	99.463621
685.000000	99.487759
684.000000	99.509858
683.000000	99.521042
682.000000	99.521553
681.000000	99.518378
680.000000	99.519118
679.000000	99.527241
678.000000	99.540504
677.000000	99.552929
676.000000	99.560761
675.000000	99.566977
674.000000	99.577170
673.000000	99.591697
672.000000	99.604817
671.000000	99.611001
670.000000	99.609536
669.000000	99.604060
668.000000	99.600492
667.000000	99.605982
666.000000	99.619762
665.000000	99.629638
664.000000	99.629022
663.000000	99.623382
662.000000	99.622851
661.000000	99.629192
660.000000	99.634698
659.000000	99.634798
658.000000	99.634230
657.000000	99.638292
656.000000	99.644222
655.000000	99.645626
654.000000	99.641233
653.000000	99.635661
652.000000	99.633420
651.000000	99.636010
650.000000	99.644416
649.000000	99.659922
648.000000	99.680330
647.000000	99.697197
646.000000	99.701034
645.000000	99.690746
644.000000	99.675773
643.000000	99.668175
642.000000	99.672893
641.000000	99.686243
640.000000	99.703203
639.000000	99.723055
638.000000	99.745761
637.000000	99.765793
636.000000	99.774605
635.000000	99.770036
634.000000	99.760276
633.000000	99.755718
632.000000	99.758838
631.000000	99.765736
630.000000	99.773339
629.000000	99.780639
628.000000	99.785829
627.000000	99.789074
626.000000	99.797640
625.000000	99.819598
624.000000	99.849194
623.000000	99.867516
622.000000	99.865556
621.000000	99.858168
620.000000	99.865259
619.000000	99.885539
618.000000	99.901597
617.000000	99.906962
616.000000	99.911740
615.000000	99.920899
614.000000	99.924709
613.000000	99.915705
612.000000	99.900190
611.000000	99.888537
610.000000	99.883775
609.000000	99.884319
608.000000	99.891588
607.000000	99.907362
606.000000	99.926390
605.000000	99.937620
604.000000	99.931981
603.000000	99.908080
602.000000	99.872982
601.000000	99.839178
600.000000	99.818890
599.000000	99.818291
598.000000	99.834640
597.000000	99.858361
596.000000	99.877426
595.000000	99.880380
594.000000	99.861501
593.000000	99.828033
592.000000	99.799811
591.000000	99.795477
590.000000	99.816205
589.000000	99.846076
588.000000	99.870247
587.000000	99.887808
586.000000	99.905353
585.000000	99.922631
584.000000	99.929843
583.000000	99.920482
582.000000	99.902390
581.000000	99.890199
580.000000	99.887280
579.000000	99.881492
578.000000	99.860213
577.000000	99.824214
576.000000	99.787715
575.000000	99.770402
574.000000	99.783418
573.000000	99.817366
572.000000	99.844506
571.000000	99.840475
570.000000	99.807651
569.000000	99.768577
568.000000	99.731983
567.000000	99.683363
566.000000	99.617305
565.000000	99.558056
564.000000	99.532103
563.000000	99.533742
562.000000	99.531091
561.000000	99.505465
560.000000	99.468806
559.000000	99.441148
558.000000	99.427936
557.000000	99.424515
556.000000	99.427688
555.000000	99.430789
554.000000	99.420030
553.000000	99.387607
552.000000	99.336578
551.000000	99.271377
550.000000	99.195541
