PE IR       SUBTECH     SPECTRUM    ASCII       PEDS        4.00        
   -1
BH1 8-7 26 0_1.asc
24/05/14
12:13:20.00
24/05/14
12:13:28.00
Administrator
?品 027 用? Administrator 日期 Tuesday, May 14 2024
550.000000
#HDR
-1
-1
#GR
cm-1
%T
1.0
0.0
4000.000000
-1.000000
3451
8
100.192473
92.081562
#DATA
4000.000000	100.070160
3999.000000	100.070846
3998.000000	100.071432
3997.000000	100.071000
3996.000000	100.069335
3995.000000	100.067046
3994.000000	100.064826
3993.000000	100.062784
3992.000000	100.060682
3991.000000	100.058519
3990.000000	100.056664
3989.000000	100.055529
3988.000000	100.055237
3987.000000	100.055441
3986.000000	100.055494
3985.000000	100.054996
3984.000000	100.054192
3983.000000	100.053696
3982.000000	100.053963
3981.000000	100.055130
3980.000000	100.057097
3979.000000	100.059411
3978.000000	100.061105
3977.000000	100.061152
3976.000000	100.059391
3975.000000	100.056875
3974.000000	100.055118
3973.000000	100.054871
3972.000000	100.055723
3971.000000	100.056714
3970.000000	100.057204
3969.000000	100.057315
3968.000000	100.057694
3967.000000	100.058823
3966.000000	100.060416
3965.000000	100.061498
3964.000000	100.061156
3963.000000	100.059208
3962.000000	100.056302
3961.000000	100.053386
3960.000000	100.051054
3959.000000	100.049359
3958.000000	100.048103
3957.000000	100.047254
3956.000000	100.047023
3955.000000	100.047488
3954.000000	100.048187
3953.000000	100.048316
3952.000000	100.047468
3951.000000	100.046096
3950.000000	100.045126
3949.000000	100.045186
3948.000000	100.046332
3947.000000	100.048209
3946.000000	100.050145
3945.000000	100.051272
3944.000000	100.050957
3943.000000	100.049281
3942.000000	100.047121
3941.000000	100.045402
3940.000000	100.044362
3939.000000	100.043663
3938.000000	100.042983
3937.000000	100.042410
3936.000000	100.042291
3935.000000	100.042852
3934.000000	100.043947
3933.000000	100.045124
3932.000000	100.045887
3931.000000	100.045949
3930.000000	100.045315
3929.000000	100.044087
3928.000000	100.042236
3927.000000	100.039663
3926.000000	100.036682
3925.000000	100.034271
3924.000000	100.033430
3923.000000	100.034262
3922.000000	100.035818
3921.000000	100.036858
3920.000000	100.036738
3919.000000	100.035621
3918.000000	100.034139
3917.000000	100.032925
3916.000000	100.032239
3915.000000	100.031843
3914.000000	100.031332
3913.000000	100.030528
3912.000000	100.029585
3911.000000	100.028665
3910.000000	100.027566
3909.000000	100.025746
3908.000000	100.022746
3907.000000	100.018617
3906.000000	100.014129
3905.000000	100.010736
3904.000000	100.009865
3903.000000	100.011715
3902.000000	100.014671
3901.000000	100.016371
3900.000000	100.015841
3899.000000	100.014081
3898.000000	100.012698
3897.000000	100.012410
3896.000000	100.013106
3895.000000	100.014590
3894.000000	100.016563
3893.000000	100.017923
3892.000000	100.017292
3891.000000	100.014829
3890.000000	100.012485
3889.000000	100.011927
3888.000000	100.012782
3887.000000	100.013239
3886.000000	100.012595
3885.000000	100.012409
3884.000000	100.014407
3883.000000	100.018195
3882.000000	100.021407
3881.000000	100.021993
3880.000000	100.020475
3879.000000	100.019290
3878.000000	100.019776
3877.000000	100.020655
3876.000000	100.019526
3875.000000	100.015652
3874.000000	100.010872
3873.000000	100.007206
3872.000000	100.004286
3871.000000	100.000551
3870.000000	99.996952
3869.000000	99.996624
3868.000000	100.000551
3867.000000	100.006262
3866.000000	100.010904
3865.000000	100.013922
3864.000000	100.016251
3863.000000	100.018022
3862.000000	100.018212
3861.000000	100.015832
3860.000000	100.010765
3859.000000	100.003767
3858.000000	99.996599
3857.000000	99.991708
3856.000000	99.989746
3855.000000	99.987653
3854.000000	99.982807
3853.000000	99.978490
3852.000000	99.979936
3851.000000	99.987290
3850.000000	99.996792
3849.000000	100.004998
3848.000000	100.010422
3847.000000	100.013141
3846.000000	100.014148
3845.000000	100.014084
3844.000000	100.012369
3843.000000	100.007912
3842.000000	100.000676
3841.000000	99.992570
3840.000000	99.986881
3839.000000	99.986103
3838.000000	99.990159
3837.000000	99.996737
3836.000000	100.003276
3835.000000	100.008493
3834.000000	100.012151
3833.000000	100.014288
3832.000000	100.015268
3831.000000	100.015952
3830.000000	100.017179
3829.000000	100.018748
3828.000000	100.019294
3827.000000	100.017876
3826.000000	100.015549
3825.000000	100.014594
3824.000000	100.016036
3823.000000	100.018047
3822.000000	100.017858
3821.000000	100.015329
3820.000000	100.012822
3819.000000	100.012144
3818.000000	100.012638
3817.000000	100.012473
3816.000000	100.011992
3815.000000	100.013577
3814.000000	100.017563
3813.000000	100.021394
3812.000000	100.022677
3811.000000	100.021139
3810.000000	100.017898
3809.000000	100.013428
3808.000000	100.007665
3807.000000	100.001948
3806.000000	99.998214
3805.000000	99.996508
3804.000000	99.995034
3803.000000	99.991674
3802.000000	99.987074
3801.000000	99.985708
3800.000000	99.990587
3799.000000	99.999818
3798.000000	100.009394
3797.000000	100.017078
3796.000000	100.023032
3795.000000	100.027710
3794.000000	100.030402
3793.000000	100.030451
3792.000000	100.028857
3791.000000	100.027913
3790.000000	100.029526
3789.000000	100.034015
3788.000000	100.040215
3787.000000	100.046165
3786.000000	100.049989
3785.000000	100.051071
3784.000000	100.050571
3783.000000	100.050045
3782.000000	100.049749
3781.000000	100.048841
3780.000000	100.047282
3779.000000	100.046557
3778.000000	100.047621
3777.000000	100.048612
3776.000000	100.046175
3775.000000	100.039199
3774.000000	100.030268
3773.000000	100.023092
3772.000000	100.019417
3771.000000	100.019163
3770.000000	100.022195
3769.000000	100.028164
3768.000000	100.035034
3767.000000	100.039467
3766.000000	100.039837
3765.000000	100.038235
3764.000000	100.038062
3763.000000	100.039676
3762.000000	100.040049
3761.000000	100.036677
3760.000000	100.030403
3759.000000	100.023943
3758.000000	100.018907
3757.000000	100.014574
3756.000000	100.008942
3755.000000	100.000598
3754.000000	99.989988
3753.000000	99.979716
3752.000000	99.972011
3751.000000	99.965647
3750.000000	99.958774
3749.000000	99.953084
3748.000000	99.952769
3747.000000	99.960645
3746.000000	99.973552
3745.000000	99.985201
3744.000000	99.994590
3743.000000	100.003274
3742.000000	100.009373
3741.000000	100.010522
3740.000000	100.007814
3739.000000	100.004202
3738.000000	100.001053
3737.000000	99.998254
3736.000000	99.996144
3735.000000	99.994937
3734.000000	99.994122
3733.000000	99.994345
3732.000000	99.997808
3731.000000	100.005578
3730.000000	100.015537
3729.000000	100.023587
3728.000000	100.026776
3727.000000	100.025891
3726.000000	100.024627
3725.000000	100.025161
3724.000000	100.025522
3723.000000	100.022055
3722.000000	100.013843
3721.000000	100.004253
3720.000000	99.997905
3719.000000	99.996146
3718.000000	99.996483
3717.000000	99.995776
3716.000000	99.993026
3715.000000	99.989234
3714.000000	99.985478
3713.000000	99.981791
3712.000000	99.977862
3711.000000	99.974522
3710.000000	99.973515
3709.000000	99.975310
3708.000000	99.978226
3707.000000	99.979898
3706.000000	99.978897
3705.000000	99.975234
3704.000000	99.970215
3703.000000	99.965858
3702.000000	99.963670
3701.000000	99.963707
3700.000000	99.964836
3699.000000	99.965637
3698.000000	99.965112
3697.000000	99.962891
3696.000000	99.958813
3695.000000	99.952505
3694.000000	99.944023
3693.000000	99.934963
3692.000000	99.928344
3691.000000	99.926384
3690.000000	99.928035
3689.000000	99.930174
3688.000000	99.931633
3687.000000	99.933362
3686.000000	99.935629
3685.000000	99.937751
3684.000000	99.939300
3683.000000	99.940137
3682.000000	99.939477
3681.000000	99.936102
3680.000000	99.930000
3679.000000	99.922861
3678.000000	99.915812
3677.000000	99.907758
3676.000000	99.898292
3675.000000	99.890273
3674.000000	99.886439
3673.000000	99.886400
3672.000000	99.887976
3671.000000	99.889413
3670.000000	99.890502
3669.000000	99.891628
3668.000000	99.892571
3667.000000	99.892990
3666.000000	99.893183
3665.000000	99.893725
3664.000000	99.894272
3663.000000	99.893150
3662.000000	99.888744
3661.000000	99.881471
3660.000000	99.873981
3659.000000	99.869102
3658.000000	99.867299
3657.000000	99.866781
3656.000000	99.866008
3655.000000	99.864901
3654.000000	99.863570
3653.000000	99.861356
3652.000000	99.857753
3651.000000	99.853981
3650.000000	99.851882
3649.000000	99.850963
3648.000000	99.849497
3647.000000	99.847427
3646.000000	99.846044
3645.000000	99.846011
3644.000000	99.846679
3643.000000	99.847212
3642.000000	99.847725
3641.000000	99.848588
3640.000000	99.848993
3639.000000	99.847518
3638.000000	99.844130
3637.000000	99.840311
3636.000000	99.836800
3635.000000	99.832527
3634.000000	99.826477
3633.000000	99.819547
3632.000000	99.813741
3631.000000	99.809415
3630.000000	99.805525
3629.000000	99.803101
3628.000000	99.804445
3627.000000	99.808653
3626.000000	99.811917
3625.000000	99.812014
3624.000000	99.810324
3623.000000	99.809747
3622.000000	99.811284
3621.000000	99.812821
3620.000000	99.811226
3619.000000	99.805955
3618.000000	99.800153
3617.000000	99.797291
3616.000000	99.797936
3615.000000	99.800488
3614.000000	99.803836
3613.000000	99.808378
3612.000000	99.814459
3611.000000	99.820856
3610.000000	99.825888
3609.000000	99.829705
3608.000000	99.833811
3607.000000	99.838175
3606.000000	99.840762
3605.000000	99.840372
3604.000000	99.838517
3603.000000	99.838134
3602.000000	99.840819
3601.000000	99.845876
3600.000000	99.851472
3599.000000	99.855852
3598.000000	99.857540
3597.000000	99.855382
3596.000000	99.849447
3595.000000	99.842011
3594.000000	99.836343
3593.000000	99.834047
3592.000000	99.834251
3591.000000	99.835185
3590.000000	99.835993
3589.000000	99.837415
3588.000000	99.840476
3587.000000	99.844478
3586.000000	99.847435
3585.000000	99.848119
3584.000000	99.846644
3583.000000	99.843645
3582.000000	99.839679
3581.000000	99.835407
3580.000000	99.831854
3579.000000	99.829895
3578.000000	99.829603
3577.000000	99.830417
3576.000000	99.831883
3575.000000	99.833942
3574.000000	99.836521
3573.000000	99.839264
3572.000000	99.841923
3571.000000	99.844483
3570.000000	99.846594
3569.000000	99.847468
3568.000000	99.846824
3567.000000	99.845590
3566.000000	99.845214
3565.000000	99.846231
3564.000000	99.847975
3563.000000	99.849539
3562.000000	99.850437
3561.000000	99.850464
3560.000000	99.849544
3559.000000	99.848094
3558.000000	99.847174
3557.000000	99.847761
3556.000000	99.849857
3555.000000	99.852325
3554.000000	99.853688
3553.000000	99.853292
3552.000000	99.851719
3551.000000	99.850188
3550.000000	99.849377
3549.000000	99.849029
3548.000000	99.848658
3547.000000	99.848383
3546.000000	99.848895
3545.000000	99.850623
3544.000000	99.853176
3543.000000	99.855626
3542.000000	99.857149
3541.000000	99.857428
3540.000000	99.856687
3539.000000	99.855588
3538.000000	99.854916
3537.000000	99.855032
3536.000000	99.855542
3535.000000	99.855654
3534.000000	99.854935
3533.000000	99.853660
3532.000000	99.852465
3531.000000	99.851764
3530.000000	99.851597
3529.000000	99.851892
3528.000000	99.852639
3527.000000	99.853755
3526.000000	99.854999
3525.000000	99.856212
3524.000000	99.857510
3523.000000	99.859011
3522.000000	99.860471
3521.000000	99.861394
3520.000000	99.861524
3519.000000	99.861144
3518.000000	99.860915
3517.000000	99.861392
3516.000000	99.862642
3515.000000	99.864232
3514.000000	99.865484
3513.000000	99.865961
3512.000000	99.865765
3511.000000	99.865413
3510.000000	99.865402
3509.000000	99.865793
3508.000000	99.866268
3507.000000	99.866491
3506.000000	99.866392
3505.000000	99.866179
3504.000000	99.866172
3503.000000	99.866550
3502.000000	99.867217
3501.000000	99.867881
3500.000000	99.868306
3499.000000	99.868494
3498.000000	99.868606
3497.000000	99.868773
3496.000000	99.868972
3495.000000	99.869100
3494.000000	99.869126
3493.000000	99.869127
3492.000000	99.869212
3491.000000	99.869432
3490.000000	99.869747
3489.000000	99.870064
3488.000000	99.870323
3487.000000	99.870511
3486.000000	99.870634
3485.000000	99.870695
3484.000000	99.870700
3483.000000	99.870661
3482.000000	99.870597
3481.000000	99.870524
3480.000000	99.870452
3479.000000	99.870381
3478.000000	99.870307
3477.000000	99.870222
3476.000000	99.870120
3475.000000	99.869999
3474.000000	99.869865
3473.000000	99.869728
3472.000000	99.869597
3471.000000	99.869478
3470.000000	99.869371
3469.000000	99.869273
3468.000000	99.869182
3467.000000	99.869097
3466.000000	99.869022
3465.000000	99.868958
3464.000000	99.868902
3463.000000	99.868853
3462.000000	99.868809
3461.000000	99.868767
3460.000000	99.868727
3459.000000	99.868685
3458.000000	99.868639
3457.000000	99.868589
3456.000000	99.868535
3455.000000	99.868477
3454.000000	99.868422
3453.000000	99.868382
3452.000000	99.868365
3451.000000	99.868368
3450.000000	99.868371
3449.000000	99.868349
3448.000000	99.868283
3447.000000	99.868176
3446.000000	99.868051
3445.000000	99.867935
3444.000000	99.867852
3443.000000	99.867828
3442.000000	99.867882
3441.000000	99.868003
3440.000000	99.868163
3439.000000	99.868327
3438.000000	99.868474
3437.000000	99.868605
3436.000000	99.868730
3435.000000	99.868851
3434.000000	99.868957
3433.000000	99.869054
3432.000000	99.869172
3431.000000	99.869338
3430.000000	99.869529
3429.000000	99.869705
3428.000000	99.869871
3427.000000	99.870074
3426.000000	99.870316
3425.000000	99.870513
3424.000000	99.870572
3423.000000	99.870500
3422.000000	99.870415
3421.000000	99.870430
3420.000000	99.870552
3419.000000	99.870705
3418.000000	99.870846
3417.000000	99.871015
3416.000000	99.871215
3415.000000	99.871322
3414.000000	99.871215
3413.000000	99.870999
3412.000000	99.870940
3411.000000	99.871072
3410.000000	99.871043
3409.000000	99.870584
3408.000000	99.870075
3407.000000	99.870242
3406.000000	99.871328
3405.000000	99.872779
3404.000000	99.873838
3403.000000	99.874398
3402.000000	99.874764
3401.000000	99.874949
3400.000000	99.874646
3399.000000	99.873784
3398.000000	99.872745
3397.000000	99.871965
3396.000000	99.871464
3395.000000	99.870961
3394.000000	99.870383
3393.000000	99.870083
3392.000000	99.870466
3391.000000	99.871535
3390.000000	99.872852
3389.000000	99.873857
3388.000000	99.874252
3387.000000	99.874093
3386.000000	99.873675
3385.000000	99.873326
3384.000000	99.873180
3383.000000	99.873151
3382.000000	99.873113
3381.000000	99.873131
3380.000000	99.873472
3379.000000	99.874326
3378.000000	99.875521
3377.000000	99.876535
3376.000000	99.876902
3375.000000	99.876579
3374.000000	99.875980
3373.000000	99.875641
3372.000000	99.875821
3371.000000	99.876435
3370.000000	99.877232
3369.000000	99.877986
3368.000000	99.878599
3367.000000	99.879095
3366.000000	99.879540
3365.000000	99.879926
3364.000000	99.880182
3363.000000	99.880313
3362.000000	99.880436
3361.000000	99.880635
3360.000000	99.880862
3359.000000	99.881053
3358.000000	99.881232
3357.000000	99.881367
3356.000000	99.881234
3355.000000	99.880700
3354.000000	99.880195
3353.000000	99.880590
3352.000000	99.882394
3351.000000	99.885211
3350.000000	99.888082
3349.000000	99.890287
3348.000000	99.891612
3347.000000	99.891979
3346.000000	99.891327
3345.000000	99.890055
3344.000000	99.889018
3343.000000	99.888619
3342.000000	99.888193
3341.000000	99.886796
3340.000000	99.884544
3339.000000	99.882682
3338.000000	99.882100
3337.000000	99.882284
3336.000000	99.882094
3335.000000	99.881412
3334.000000	99.881486
3333.000000	99.883527
3332.000000	99.887407
3331.000000	99.891701
3330.000000	99.894800
3329.000000	99.896013
3328.000000	99.895823
3327.000000	99.895318
3326.000000	99.895172
3325.000000	99.895067
3324.000000	99.894248
3323.000000	99.892604
3322.000000	99.890944
3321.000000	99.890109
3320.000000	99.890075
3319.000000	99.890071
3318.000000	99.889439
3317.000000	99.888225
3316.000000	99.887039
3315.000000	99.886556
3314.000000	99.887110
3313.000000	99.888516
3312.000000	99.890118
3311.000000	99.891133
3310.000000	99.891196
3309.000000	99.890614
3308.000000	99.890074
3307.000000	99.890028
3306.000000	99.890366
3305.000000	99.890655
3304.000000	99.890625
3303.000000	99.890379
3302.000000	99.890245
3301.000000	99.890457
3300.000000	99.890966
3299.000000	99.891492
3298.000000	99.891738
3297.000000	99.891618
3296.000000	99.891303
3295.000000	99.891077
3294.000000	99.891103
3293.000000	99.891312
3292.000000	99.891527
3291.000000	99.891683
3290.000000	99.891862
3289.000000	99.892148
3288.000000	99.892505
3287.000000	99.892808
3286.000000	99.892916
3285.000000	99.892690
3284.000000	99.892045
3283.000000	99.891081
3282.000000	99.890173
3281.000000	99.889762
3280.000000	99.889997
3279.000000	99.890593
3278.000000	99.891065
3277.000000	99.891196
3276.000000	99.891192
3275.000000	99.891393
3274.000000	99.891828
3273.000000	99.892116
3272.000000	99.891863
3271.000000	99.891134
3270.000000	99.890445
3269.000000	99.890295
3268.000000	99.890817
3267.000000	99.891841
3266.000000	99.893051
3265.000000	99.893989
3264.000000	99.894152
3263.000000	99.893391
3262.000000	99.892236
3261.000000	99.891622
3260.000000	99.892180
3259.000000	99.893953
3258.000000	99.896535
3257.000000	99.899181
3256.000000	99.900959
3255.000000	99.901220
3254.000000	99.900137
3253.000000	99.898600
3252.000000	99.897320
3251.000000	99.896291
3250.000000	99.895338
3249.000000	99.894720
3248.000000	99.894782
3247.000000	99.895211
3246.000000	99.895125
3245.000000	99.894068
3244.000000	99.892634
3243.000000	99.891875
3242.000000	99.892211
3241.000000	99.893198
3240.000000	99.894256
3239.000000	99.895323
3238.000000	99.896650
3237.000000	99.898200
3236.000000	99.899535
3235.000000	99.900235
3234.000000	99.900206
3233.000000	99.899619
3232.000000	99.898714
3231.000000	99.897834
3230.000000	99.897485
3229.000000	99.898090
3228.000000	99.899606
3227.000000	99.901430
3226.000000	99.902812
3225.000000	99.903376
3224.000000	99.903197
3223.000000	99.902509
3222.000000	99.901493
3221.000000	99.900393
3220.000000	99.899684
3219.000000	99.899867
3218.000000	99.901029
3217.000000	99.902608
3216.000000	99.903722
3215.000000	99.903912
3214.000000	99.903428
3213.000000	99.902886
3212.000000	99.902660
3211.000000	99.902668
3210.000000	99.902758
3209.000000	99.903116
3208.000000	99.904153
3207.000000	99.905984
3206.000000	99.908116
3205.000000	99.909794
3204.000000	99.910598
3203.000000	99.910593
3202.000000	99.909987
3201.000000	99.908811
3200.000000	99.907100
3199.000000	99.905279
3198.000000	99.904052
3197.000000	99.903793
3196.000000	99.904152
3195.000000	99.904343
3194.000000	99.903987
3193.000000	99.903587
3192.000000	99.904004
3191.000000	99.905499
3190.000000	99.907387
3189.000000	99.908629
3188.000000	99.908818
3187.000000	99.908425
3186.000000	99.908197
3185.000000	99.908401
3184.000000	99.908762
3183.000000	99.908962
3182.000000	99.908936
3181.000000	99.908735
3180.000000	99.908378
3179.000000	99.907960
3178.000000	99.907699
3177.000000	99.907734
3176.000000	99.907979
3175.000000	99.908273
3174.000000	99.908587
3173.000000	99.909004
3172.000000	99.909562
3171.000000	99.910236
3170.000000	99.910983
3169.000000	99.911703
3168.000000	99.912248
3167.000000	99.912591
3166.000000	99.912876
3165.000000	99.913260
3164.000000	99.913740
3163.000000	99.914220
3162.000000	99.914660
3161.000000	99.915098
3160.000000	99.915564
3159.000000	99.916057
3158.000000	99.916568
3157.000000	99.917094
3156.000000	99.917628
3155.000000	99.918160
3154.000000	99.918684
3153.000000	99.919200
3152.000000	99.919713
3151.000000	99.920234
3150.000000	99.920768
3149.000000	99.921311
3148.000000	99.921858
3147.000000	99.922403
3146.000000	99.922948
3145.000000	99.923496
3144.000000	99.924053
3143.000000	99.924621
3142.000000	99.925194
3141.000000	99.925765
3140.000000	99.926325
3139.000000	99.926870
3138.000000	99.927406
3137.000000	99.927935
3136.000000	99.928458
3135.000000	99.928974
3134.000000	99.929483
3133.000000	99.929988
3132.000000	99.930490
3131.000000	99.930993
3130.000000	99.931497
3129.000000	99.932004
3128.000000	99.932512
3127.000000	99.933019
3126.000000	99.933520
3125.000000	99.934017
3124.000000	99.934511
3123.000000	99.935011
3122.000000	99.935530
3121.000000	99.936084
3120.000000	99.936674
3119.000000	99.937271
3118.000000	99.937809
3117.000000	99.938220
3116.000000	99.938505
3115.000000	99.938771
3114.000000	99.939133
3113.000000	99.939621
3112.000000	99.940221
3111.000000	99.940962
3110.000000	99.941849
3109.000000	99.942760
3108.000000	99.943497
3107.000000	99.943988
3106.000000	99.944365
3105.000000	99.944830
3104.000000	99.945426
3103.000000	99.946014
3102.000000	99.946485
3101.000000	99.946914
3100.000000	99.947472
3099.000000	99.948217
3098.000000	99.949028
3097.000000	99.949736
3096.000000	99.950285
3095.000000	99.950776
3094.000000	99.951383
3093.000000	99.952188
3092.000000	99.953091
3091.000000	99.953900
3090.000000	99.954518
3089.000000	99.955015
3088.000000	99.955510
3087.000000	99.956006
3086.000000	99.956425
3085.000000	99.956764
3084.000000	99.957174
3083.000000	99.957826
3082.000000	99.958708
3081.000000	99.959547
3080.000000	99.960020
3079.000000	99.960050
3078.000000	99.959831
3077.000000	99.959661
3076.000000	99.959697
3075.000000	99.959935
3074.000000	99.960323
3073.000000	99.960840
3072.000000	99.961467
3071.000000	99.962109
3070.000000	99.962629
3069.000000	99.962948
3068.000000	99.963113
3067.000000	99.963279
3066.000000	99.963600
3065.000000	99.964098
3064.000000	99.964644
3063.000000	99.965073
3062.000000	99.965326
3061.000000	99.965466
3060.000000	99.965611
3059.000000	99.965841
3058.000000	99.966175
3057.000000	99.966603
3056.000000	99.967076
3055.000000	99.967511
3054.000000	99.967826
3053.000000	99.968012
3052.000000	99.968140
3051.000000	99.968299
3050.000000	99.968511
3049.000000	99.968737
3048.000000	99.968947
3047.000000	99.969148
3046.000000	99.969362
3045.000000	99.969593
3044.000000	99.969841
3043.000000	99.970138
3042.000000	99.970528
3041.000000	99.971007
3040.000000	99.971516
3039.000000	99.971997
3038.000000	99.972453
3037.000000	99.972917
3036.000000	99.973416
3035.000000	99.973954
3034.000000	99.974515
3033.000000	99.975086
3032.000000	99.975667
3031.000000	99.976264
3030.000000	99.976879
3029.000000	99.977510
3028.000000	99.978156
3027.000000	99.978818
3026.000000	99.979500
3025.000000	99.980204
3024.000000	99.980932
3023.000000	99.981686
3022.000000	99.982468
3021.000000	99.983277
3020.000000	99.984115
3019.000000	99.984979
3018.000000	99.985872
3017.000000	99.986802
3016.000000	99.987792
3015.000000	99.988791
3014.000000	99.989651
3013.000000	99.990310
3012.000000	99.990982
3011.000000	99.991950
3010.000000	99.993242
3009.000000	99.994570
3008.000000	99.995628
3007.000000	99.996413
3006.000000	99.997243
3005.000000	99.998454
3004.000000	100.000050
3003.000000	100.001652
3002.000000	100.002853
3001.000000	100.003623
3000.000000	100.004379
2999.000000	100.005649
2998.000000	100.007648
2997.000000	100.010029
2996.000000	100.011984
2995.000000	100.012728
2994.000000	100.012121
2993.000000	100.010976
2992.000000	100.010619
2991.000000	100.011838
2990.000000	100.014226
2989.000000	100.016628
2988.000000	100.018441
2987.000000	100.020191
2986.000000	100.022563
2985.000000	100.025098
2984.000000	100.026497
2983.000000	100.026290
2982.000000	100.025554
2981.000000	100.025699
2980.000000	100.027101
2979.000000	100.029398
2978.000000	100.032447
2977.000000	100.036061
2976.000000	100.039104
2975.000000	100.039972
2974.000000	100.038162
2973.000000	100.034755
2972.000000	100.031260
2971.000000	100.028444
2970.000000	100.026409
2969.000000	100.025161
2968.000000	100.024724
2967.000000	100.025005
2966.000000	100.025741
2965.000000	100.026353
2964.000000	100.026083
2963.000000	100.024770
2962.000000	100.023369
2961.000000	100.022974
2960.000000	100.023299
2959.000000	100.022888
2958.000000	100.021071
2957.000000	100.018925
2956.000000	100.017907
2955.000000	100.018211
2954.000000	100.019042
2953.000000	100.019954
2952.000000	100.021146
2951.000000	100.022666
2950.000000	100.024023
2949.000000	100.024572
2948.000000	100.023936
2947.000000	100.022133
2946.000000	100.019703
2945.000000	100.017688
2944.000000	100.017017
2943.000000	100.017795
2942.000000	100.019270
2941.000000	100.020526
2940.000000	100.021198
2939.000000	100.021486
2938.000000	100.021679
2937.000000	100.021786
2936.000000	100.021605
2935.000000	100.021088
2934.000000	100.020529
2933.000000	100.020343
2932.000000	100.020695
2931.000000	100.021462
2930.000000	100.022485
2929.000000	100.023673
2928.000000	100.024786
2927.000000	100.025363
2926.000000	100.025109
2925.000000	100.024315
2924.000000	100.023737
2923.000000	100.023995
2922.000000	100.025174
2921.000000	100.026826
2920.000000	100.028178
2919.000000	100.028555
2918.000000	100.027833
2917.000000	100.026641
2916.000000	100.025896
2915.000000	100.025941
2914.000000	100.026279
2913.000000	100.026136
2912.000000	100.025272
2911.000000	100.024235
2910.000000	100.023805
2909.000000	100.024128
2908.000000	100.024481
2907.000000	100.024016
2906.000000	100.022778
2905.000000	100.021787
2904.000000	100.022029
2903.000000	100.023617
2902.000000	100.025958
2901.000000	100.028352
2900.000000	100.030290
2899.000000	100.031419
2898.000000	100.031656
2897.000000	100.031338
2896.000000	100.030979
2895.000000	100.030781
2894.000000	100.030532
2893.000000	100.030004
2892.000000	100.029299
2891.000000	100.028806
2890.000000	100.028855
2889.000000	100.029390
2888.000000	100.029966
2887.000000	100.030125
2886.000000	100.029865
2885.000000	100.029650
2884.000000	100.029932
2883.000000	100.030744
2882.000000	100.031793
2881.000000	100.032778
2880.000000	100.033467
2879.000000	100.033601
2878.000000	100.033008
2877.000000	100.031896
2876.000000	100.030890
2875.000000	100.030607
2874.000000	100.031149
2873.000000	100.031983
2872.000000	100.032349
2871.000000	100.031894
2870.000000	100.030873
2869.000000	100.029768
2868.000000	100.028787
2867.000000	100.027876
2866.000000	100.027116
2865.000000	100.026770
2864.000000	100.026876
2863.000000	100.027058
2862.000000	100.026968
2861.000000	100.026737
2860.000000	100.026754
2859.000000	100.027096
2858.000000	100.027363
2857.000000	100.027097
2856.000000	100.026172
2855.000000	100.024779
2854.000000	100.023307
2853.000000	100.022227
2852.000000	100.021867
2851.000000	100.022203
2850.000000	100.022867
2849.000000	100.023437
2848.000000	100.023711
2847.000000	100.023633
2846.000000	100.023171
2845.000000	100.022367
2844.000000	100.021402
2843.000000	100.020502
2842.000000	100.019822
2841.000000	100.019461
2840.000000	100.019491
2839.000000	100.019846
2838.000000	100.020282
2837.000000	100.020554
2836.000000	100.020603
2835.000000	100.020532
2834.000000	100.020465
2833.000000	100.020466
2832.000000	100.020551
2831.000000	100.020702
2830.000000	100.020876
2829.000000	100.021029
2828.000000	100.021132
2827.000000	100.021187
2826.000000	100.021245
2825.000000	100.021386
2824.000000	100.021654
2823.000000	100.021988
2822.000000	100.022259
2821.000000	100.022399
2820.000000	100.022444
2819.000000	100.022492
2818.000000	100.022619
2817.000000	100.022842
2816.000000	100.023137
2815.000000	100.023465
2814.000000	100.023798
2813.000000	100.024119
2812.000000	100.024426
2811.000000	100.024716
2810.000000	100.024990
2809.000000	100.025255
2808.000000	100.025515
2807.000000	100.025777
2806.000000	100.026052
2805.000000	100.026349
2804.000000	100.026670
2803.000000	100.027016
2802.000000	100.027386
2801.000000	100.027777
2800.000000	100.028179
2799.000000	100.028583
2798.000000	100.028977
2797.000000	100.029358
2796.000000	100.029729
2795.000000	100.030097
2794.000000	100.030476
2793.000000	100.030877
2792.000000	100.031292
2791.000000	100.031684
2790.000000	100.032018
2789.000000	100.032314
2788.000000	100.032653
2787.000000	100.033094
2786.000000	100.033607
2785.000000	100.034116
2784.000000	100.034587
2783.000000	100.035051
2782.000000	100.035560
2781.000000	100.036140
2780.000000	100.036759
2779.000000	100.037326
2778.000000	100.037747
2777.000000	100.038007
2776.000000	100.038196
2775.000000	100.038438
2774.000000	100.038817
2773.000000	100.039352
2772.000000	100.039947
2771.000000	100.040368
2770.000000	100.040388
2769.000000	100.040057
2768.000000	100.039787
2767.000000	100.039996
2766.000000	100.040769
2765.000000	100.041948
2764.000000	100.043381
2763.000000	100.044922
2762.000000	100.046220
2761.000000	100.046849
2760.000000	100.046681
2759.000000	100.045956
2758.000000	100.045026
2757.000000	100.044211
2756.000000	100.043876
2755.000000	100.044338
2754.000000	100.045545
2753.000000	100.046959
2752.000000	100.047973
2751.000000	100.048381
2750.000000	100.048330
2749.000000	100.047962
2748.000000	100.047302
2747.000000	100.046482
2746.000000	100.045840
2745.000000	100.045657
2744.000000	100.045867
2743.000000	100.046126
2742.000000	100.046183
2741.000000	100.046119
2740.000000	100.046136
2739.000000	100.046184
2738.000000	100.045974
2737.000000	100.045440
2736.000000	100.045027
2735.000000	100.045301
2734.000000	100.046405
2733.000000	100.048040
2732.000000	100.049795
2731.000000	100.051283
2730.000000	100.052081
2729.000000	100.051878
2728.000000	100.050807
2727.000000	100.049470
2726.000000	100.048357
2725.000000	100.047469
2724.000000	100.046667
2723.000000	100.046105
2722.000000	100.046075
2721.000000	100.046484
2720.000000	100.046696
2719.000000	100.046040
2718.000000	100.044539
2717.000000	100.043147
2716.000000	100.043033
2715.000000	100.044516
2714.000000	100.046746
2713.000000	100.048573
2712.000000	100.049639
2711.000000	100.050311
2710.000000	100.050759
2709.000000	100.050685
2708.000000	100.049936
2707.000000	100.048849
2706.000000	100.047869
2705.000000	100.047281
2704.000000	100.047437
2703.000000	100.048697
2702.000000	100.050807
2701.000000	100.052714
2700.000000	100.053303
2699.000000	100.052215
2698.000000	100.049942
2697.000000	100.047519
2696.000000	100.046041
2695.000000	100.045738
2694.000000	100.045425
2693.000000	100.043595
2692.000000	100.040374
2691.000000	100.037642
2690.000000	100.036618
2689.000000	100.036304
2688.000000	100.035149
2687.000000	100.033692
2686.000000	100.034089
2685.000000	100.037228
2684.000000	100.041643
2683.000000	100.045179
2682.000000	100.047053
2681.000000	100.047722
2680.000000	100.047652
2679.000000	100.046936
2678.000000	100.045775
2677.000000	100.044733
2676.000000	100.044345
2675.000000	100.044675
2674.000000	100.045316
2673.000000	100.045798
2672.000000	100.046083
2671.000000	100.046654
2670.000000	100.047975
2669.000000	100.049839
2668.000000	100.051380
2667.000000	100.051799
2666.000000	100.050909
2665.000000	100.048971
2664.000000	100.046320
2663.000000	100.043398
2662.000000	100.040987
2661.000000	100.039951
2660.000000	100.040514
2659.000000	100.041917
2658.000000	100.042907
2657.000000	100.042861
2656.000000	100.042264
2655.000000	100.042022
2654.000000	100.042435
2653.000000	100.042987
2652.000000	100.043077
2651.000000	100.042735
2650.000000	100.042489
2649.000000	100.042681
2648.000000	100.043110
2647.000000	100.043296
2646.000000	100.042995
2645.000000	100.042382
2644.000000	100.041837
2643.000000	100.041564
2642.000000	100.041394
2641.000000	100.040971
2640.000000	100.040225
2639.000000	100.039603
2638.000000	100.039648
2637.000000	100.040440
2636.000000	100.041491
2635.000000	100.042166
2634.000000	100.042255
2633.000000	100.041973
2632.000000	100.041570
2631.000000	100.041035
2630.000000	100.040249
2629.000000	100.039297
2628.000000	100.038501
2627.000000	100.038136
2626.000000	100.038172
2625.000000	100.038302
2624.000000	100.038220
2623.000000	100.037850
2622.000000	100.037286
2621.000000	100.036635
2620.000000	100.036043
2619.000000	100.035799
2618.000000	100.036134
2617.000000	100.036844
2616.000000	100.037340
2615.000000	100.037178
2614.000000	100.036312
2613.000000	100.034859
2612.000000	100.032969
2611.000000	100.031107
2610.000000	100.030051
2609.000000	100.030262
2608.000000	100.031545
2607.000000	100.033544
2606.000000	100.036157
2605.000000	100.039050
2604.000000	100.041262
2603.000000	100.041897
2602.000000	100.041094
2601.000000	100.039798
2600.000000	100.038677
2599.000000	100.037709
2598.000000	100.036746
2597.000000	100.035909
2596.000000	100.035431
2595.000000	100.035509
2594.000000	100.036190
2593.000000	100.037009
2592.000000	100.036964
2591.000000	100.035452
2590.000000	100.033111
2589.000000	100.031213
2588.000000	100.030279
2587.000000	100.029811
2586.000000	100.029283
2585.000000	100.028760
2584.000000	100.028414
2583.000000	100.028186
2582.000000	100.028259
2581.000000	100.029177
2580.000000	100.031004
2579.000000	100.032911
2578.000000	100.034121
2577.000000	100.034835
2576.000000	100.035737
2575.000000	100.036797
2574.000000	100.037185
2573.000000	100.036389
2572.000000	100.034913
2571.000000	100.033708
2570.000000	100.033182
2569.000000	100.032904
2568.000000	100.032159
2567.000000	100.030680
2566.000000	100.028898
2565.000000	100.027610
2564.000000	100.027354
2563.000000	100.028096
2562.000000	100.029346
2561.000000	100.030488
2560.000000	100.031107
2559.000000	100.031162
2558.000000	100.030916
2557.000000	100.030734
2556.000000	100.030823
2555.000000	100.031141
2554.000000	100.031522
2553.000000	100.031835
2552.000000	100.032027
2551.000000	100.032089
2550.000000	100.032039
2549.000000	100.031922
2548.000000	100.031795
2547.000000	100.031705
2546.000000	100.031674
2545.000000	100.031703
2544.000000	100.031773
2543.000000	100.031861
2542.000000	100.031955
2541.000000	100.032048
2540.000000	100.032126
2539.000000	100.032183
2538.000000	100.032229
2537.000000	100.032280
2536.000000	100.032347
2535.000000	100.032436
2534.000000	100.032550
2533.000000	100.032685
2532.000000	100.032826
2531.000000	100.032965
2530.000000	100.033102
2529.000000	100.033240
2528.000000	100.033383
2527.000000	100.033533
2526.000000	100.033693
2525.000000	100.033860
2524.000000	100.034033
2523.000000	100.034207
2522.000000	100.034379
2521.000000	100.034546
2520.000000	100.034706
2519.000000	100.034861
2518.000000	100.035015
2517.000000	100.035171
2516.000000	100.035332
2515.000000	100.035493
2514.000000	100.035652
2513.000000	100.035809
2512.000000	100.035970
2511.000000	100.036145
2510.000000	100.036346
2509.000000	100.036577
2508.000000	100.036832
2507.000000	100.037090
2506.000000	100.037327
2505.000000	100.037515
2504.000000	100.037637
2503.000000	100.037725
2502.000000	100.037863
2501.000000	100.038125
2500.000000	100.038521
2499.000000	100.039012
2498.000000	100.039541
2497.000000	100.040016
2496.000000	100.040307
2495.000000	100.040346
2494.000000	100.040248
2493.000000	100.040194
2492.000000	100.040240
2491.000000	100.040363
2490.000000	100.040602
2489.000000	100.041024
2488.000000	100.041551
2487.000000	100.041994
2486.000000	100.042295
2485.000000	100.042565
2484.000000	100.042849
2483.000000	100.043032
2482.000000	100.043036
2481.000000	100.042974
2480.000000	100.043025
2479.000000	100.043230
2478.000000	100.043528
2477.000000	100.043878
2476.000000	100.044270
2475.000000	100.044660
2474.000000	100.044994
2473.000000	100.045294
2472.000000	100.045646
2471.000000	100.046107
2470.000000	100.046658
2469.000000	100.047204
2468.000000	100.047620
2467.000000	100.047854
2466.000000	100.047970
2465.000000	100.048104
2464.000000	100.048335
2463.000000	100.048635
2462.000000	100.048925
2461.000000	100.049173
2460.000000	100.049424
2459.000000	100.049716
2458.000000	100.050023
2457.000000	100.050289
2456.000000	100.050505
2455.000000	100.050713
2454.000000	100.050967
2453.000000	100.051305
2452.000000	100.051744
2451.000000	100.052275
2450.000000	100.052855
2449.000000	100.053414
2448.000000	100.053885
2447.000000	100.054223
2446.000000	100.054439
2445.000000	100.054619
2444.000000	100.054896
2443.000000	100.055370
2442.000000	100.056026
2441.000000	100.056721
2440.000000	100.057242
2439.000000	100.057415
2438.000000	100.057223
2437.000000	100.056917
2436.000000	100.056909
2435.000000	100.057429
2434.000000	100.058310
2433.000000	100.059146
2432.000000	100.059754
2431.000000	100.060320
2430.000000	100.061040
2429.000000	100.061773
2428.000000	100.062160
2427.000000	100.062002
2426.000000	100.061377
2425.000000	100.060521
2424.000000	100.059757
2423.000000	100.059452
2422.000000	100.059850
2421.000000	100.060861
2420.000000	100.062086
2419.000000	100.063169
2418.000000	100.064105
2417.000000	100.065164
2416.000000	100.066575
2415.000000	100.068214
2414.000000	100.069592
2413.000000	100.070249
2412.000000	100.070221
2411.000000	100.070043
2410.000000	100.070181
2409.000000	100.070494
2408.000000	100.070490
2407.000000	100.070029
2406.000000	100.069510
2405.000000	100.069381
2404.000000	100.069651
2403.000000	100.069991
2402.000000	100.070148
2401.000000	100.070135
2400.000000	100.070121
2399.000000	100.070267
2398.000000	100.070625
2397.000000	100.071098
2396.000000	100.071476
2395.000000	100.071567
2394.000000	100.071329
2393.000000	100.070868
2392.000000	100.070389
2391.000000	100.070107
2390.000000	100.070142
2389.000000	100.070435
2388.000000	100.070788
2387.000000	100.071033
2386.000000	100.071132
2385.000000	100.071131
2384.000000	100.071080
2383.000000	100.071030
2382.000000	100.071035
2381.000000	100.071107
2380.000000	100.071202
2379.000000	100.071268
2378.000000	100.071283
2377.000000	100.071253
2376.000000	100.071197
2375.000000	100.071128
2374.000000	100.071063
2373.000000	100.071016
2372.000000	100.070988
2371.000000	100.070979
2370.000000	100.070985
2369.000000	100.070996
2368.000000	100.071003
2367.000000	100.070997
2366.000000	100.070977
2365.000000	100.070953
2364.000000	100.070939
2363.000000	100.070946
2362.000000	100.070977
2361.000000	100.071025
2360.000000	100.071084
2359.000000	100.071144
2358.000000	100.071196
2357.000000	100.071234
2356.000000	100.071253
2355.000000	100.071257
2354.000000	100.071252
2353.000000	100.071247
2352.000000	100.071251
2351.000000	100.071266
2350.000000	100.071291
2349.000000	100.071323
2348.000000	100.071364
2347.000000	100.071415
2346.000000	100.071473
2345.000000	100.071529
2344.000000	100.071573
2343.000000	100.071600
2342.000000	100.071613
2341.000000	100.071626
2340.000000	100.071649
2339.000000	100.071689
2338.000000	100.071739
2337.000000	100.071788
2336.000000	100.071823
2335.000000	100.071838
2334.000000	100.071833
2333.000000	100.071814
2332.000000	100.071785
2331.000000	100.071742
2330.000000	100.071675
2329.000000	100.071577
2328.000000	100.071448
2327.000000	100.071285
2326.000000	100.071104
2325.000000	100.070940
2324.000000	100.070828
2323.000000	100.070768
2322.000000	100.070700
2321.000000	100.070528
2320.000000	100.070192
2319.000000	100.069683
2318.000000	100.069087
2317.000000	100.068534
2316.000000	100.068211
2315.000000	100.068169
2314.000000	100.068346
2313.000000	100.068568
2312.000000	100.068811
2311.000000	100.069076
2310.000000	100.069375
2309.000000	100.069648
2308.000000	100.069909
2307.000000	100.070070
2306.000000	100.069931
2305.000000	100.069274
2304.000000	100.068153
2303.000000	100.066688
2302.000000	100.064947
2301.000000	100.063040
2300.000000	100.061613
2299.000000	100.061408
2298.000000	100.062540
2297.000000	100.064058
2296.000000	100.064730
2295.000000	100.064006
2294.000000	100.062118
2293.000000	100.059604
2292.000000	100.057033
2291.000000	100.054874
2290.000000	100.053239
2289.000000	100.051858
2288.000000	100.050455
2287.000000	100.049265
2286.000000	100.048788
2285.000000	100.049080
2284.000000	100.049500
2283.000000	100.049296
2282.000000	100.048260
2281.000000	100.046910
2280.000000	100.046125
2279.000000	100.046505
2278.000000	100.047876
2277.000000	100.049359
2276.000000	100.050193
2275.000000	100.050369
2274.000000	100.050236
2273.000000	100.049711
2272.000000	100.048375
2271.000000	100.046315
2270.000000	100.044407
2269.000000	100.043448
2268.000000	100.043329
2267.000000	100.043340
2266.000000	100.043034
2265.000000	100.042509
2264.000000	100.041972
2263.000000	100.041363
2262.000000	100.040470
2261.000000	100.039203
2260.000000	100.037691
2259.000000	100.036244
2258.000000	100.035248
2257.000000	100.034965
2256.000000	100.035328
2255.000000	100.035964
2254.000000	100.036493
2253.000000	100.036739
2252.000000	100.036678
2251.000000	100.036311
2250.000000	100.035641
2249.000000	100.034754
2248.000000	100.033821
2247.000000	100.033029
2246.000000	100.032484
2245.000000	100.032175
2244.000000	100.032004
2243.000000	100.031866
2242.000000	100.031711
2241.000000	100.031535
2240.000000	100.031324
2239.000000	100.031030
2238.000000	100.030622
2237.000000	100.030131
2236.000000	100.029667
2235.000000	100.029347
2234.000000	100.029207
2233.000000	100.029177
2232.000000	100.029119
2231.000000	100.028949
2230.000000	100.028680
2229.000000	100.028402
2228.000000	100.028219
2227.000000	100.028152
2226.000000	100.028133
2225.000000	100.028082
2224.000000	100.027994
2223.000000	100.027930
2222.000000	100.027939
2221.000000	100.028008
2220.000000	100.028106
2219.000000	100.028235
2218.000000	100.028417
2217.000000	100.028634
2216.000000	100.028825
2215.000000	100.028953
2214.000000	100.029042
2213.000000	100.029144
2212.000000	100.029287
2211.000000	100.029444
2210.000000	100.029576
2209.000000	100.029689
2208.000000	100.029842
2207.000000	100.030096
2206.000000	100.030446
2205.000000	100.030808
2204.000000	100.031083
2203.000000	100.031261
2202.000000	100.031440
2201.000000	100.031740
2200.000000	100.032191
2199.000000	100.032726
2198.000000	100.033240
2197.000000	100.033665
2196.000000	100.033986
2195.000000	100.034252
2194.000000	100.034528
2193.000000	100.034824
2192.000000	100.035089
2191.000000	100.035292
2190.000000	100.035465
2189.000000	100.035626
2188.000000	100.035763
2187.000000	100.035912
2186.000000	100.036172
2185.000000	100.036591
2184.000000	100.037088
2183.000000	100.037523
2182.000000	100.037838
2181.000000	100.038074
2180.000000	100.038276
2179.000000	100.038441
2178.000000	100.038568
2177.000000	100.038709
2176.000000	100.038911
2175.000000	100.039175
2174.000000	100.039464
2173.000000	100.039740
2172.000000	100.039982
2171.000000	100.040174
2170.000000	100.040321
2169.000000	100.040444
2168.000000	100.040560
2167.000000	100.040669
2166.000000	100.040780
2165.000000	100.040907
2164.000000	100.041038
2163.000000	100.041130
2162.000000	100.041187
2161.000000	100.041291
2160.000000	100.041503
2159.000000	100.041760
2158.000000	100.041911
2157.000000	100.041889
2156.000000	100.041799
2155.000000	100.041814
2154.000000	100.042005
2153.000000	100.042350
2152.000000	100.042825
2151.000000	100.043405
2150.000000	100.043969
2149.000000	100.044337
2148.000000	100.044426
2147.000000	100.044332
2146.000000	100.044224
2145.000000	100.044149
2144.000000	100.044044
2143.000000	100.043923
2142.000000	100.044004
2141.000000	100.044479
2140.000000	100.045222
2139.000000	100.045812
2138.000000	100.045982
2137.000000	100.045910
2136.000000	100.045982
2135.000000	100.046309
2134.000000	100.046645
2133.000000	100.046740
2132.000000	100.046610
2131.000000	100.046443
2130.000000	100.046425
2129.000000	100.046709
2128.000000	100.047367
2127.000000	100.048276
2126.000000	100.049169
2125.000000	100.049876
2124.000000	100.050460
2123.000000	100.051136
2122.000000	100.052079
2121.000000	100.053249
2120.000000	100.054344
2119.000000	100.055016
2118.000000	100.055225
2117.000000	100.055297
2116.000000	100.055508
2115.000000	100.055722
2114.000000	100.055650
2113.000000	100.055301
2112.000000	100.054994
2111.000000	100.055012
2110.000000	100.055415
2109.000000	100.056144
2108.000000	100.057081
2107.000000	100.058019
2106.000000	100.058752
2105.000000	100.059252
2104.000000	100.059640
2103.000000	100.059985
2102.000000	100.060251
2101.000000	100.060468
2100.000000	100.060822
2099.000000	100.061464
2098.000000	100.062321
2097.000000	100.063151
2096.000000	100.063751
2095.000000	100.064093
2094.000000	100.064274
2093.000000	100.064431
2092.000000	100.064668
2091.000000	100.065003
2090.000000	100.065351
2089.000000	100.065609
2088.000000	100.065774
2087.000000	100.065960
2086.000000	100.066299
2085.000000	100.066837
2084.000000	100.067484
2083.000000	100.068019
2082.000000	100.068240
2081.000000	100.068117
2080.000000	100.067860
2079.000000	100.067767
2078.000000	100.067970
2077.000000	100.068389
2076.000000	100.068872
2075.000000	100.069346
2074.000000	100.069789
2073.000000	100.070136
2072.000000	100.070284
2071.000000	100.070203
2070.000000	100.069983
2069.000000	100.069779
2068.000000	100.069713
2067.000000	100.069840
2066.000000	100.070144
2065.000000	100.070518
2064.000000	100.070777
2063.000000	100.070760
2062.000000	100.070441
2061.000000	100.069947
2060.000000	100.069474
2059.000000	100.069176
2058.000000	100.069106
2057.000000	100.069223
2056.000000	100.069387
2055.000000	100.069388
2054.000000	100.069047
2053.000000	100.068333
2052.000000	100.067415
2051.000000	100.066572
2050.000000	100.066016
2049.000000	100.065771
2048.000000	100.065698
2047.000000	100.065584
2046.000000	100.065257
2045.000000	100.064650
2044.000000	100.063824
2043.000000	100.062975
2042.000000	100.062333
2041.000000	100.061985
2040.000000	100.061826
2039.000000	100.061651
2038.000000	100.061334
2037.000000	100.060888
2036.000000	100.060379
2035.000000	100.059874
2034.000000	100.059409
2033.000000	100.058966
2032.000000	100.058448
2031.000000	100.057771
2030.000000	100.056985
2029.000000	100.056269
2028.000000	100.055763
2027.000000	100.055463
2026.000000	100.055252
2025.000000	100.055007
2024.000000	100.054647
2023.000000	100.054112
2022.000000	100.053392
2021.000000	100.052584
2020.000000	100.051841
2019.000000	100.051242
2018.000000	100.050734
2017.000000	100.050205
2016.000000	100.049593
2015.000000	100.048929
2014.000000	100.048317
2013.000000	100.047903
2012.000000	100.047788
2011.000000	100.047897
2010.000000	100.047936
2009.000000	100.047582
2008.000000	100.046718
2007.000000	100.045510
2006.000000	100.044318
2005.000000	100.043463
2004.000000	100.043013
2003.000000	100.042762
2002.000000	100.042430
2001.000000	100.041904
2000.000000	100.041246
1999.000000	100.040569
1998.000000	100.040002
1997.000000	100.039673
1996.000000	100.039599
1995.000000	100.039623
1994.000000	100.039602
1993.000000	100.039585
1992.000000	100.039669
1991.000000	100.039756
1990.000000	100.039636
1989.000000	100.039257
1988.000000	100.038715
1987.000000	100.038078
1986.000000	100.037398
1985.000000	100.036910
1984.000000	100.036925
1983.000000	100.037485
1982.000000	100.038276
1981.000000	100.038984
1980.000000	100.039592
1979.000000	100.040244
1978.000000	100.040901
1977.000000	100.041250
1976.000000	100.040928
1975.000000	100.039828
1974.000000	100.038223
1973.000000	100.036703
1972.000000	100.035830
1971.000000	100.035802
1970.000000	100.036453
1969.000000	100.037420
1968.000000	100.038305
1967.000000	100.038746
1966.000000	100.038544
1965.000000	100.037822
1964.000000	100.036990
1963.000000	100.036427
1962.000000	100.036221
1961.000000	100.036247
1960.000000	100.036390
1959.000000	100.036634
1958.000000	100.036966
1957.000000	100.037311
1956.000000	100.037545
1955.000000	100.037499
1954.000000	100.037033
1953.000000	100.036233
1952.000000	100.035499
1951.000000	100.035278
1950.000000	100.035683
1949.000000	100.036428
1948.000000	100.037056
1947.000000	100.037193
1946.000000	100.036745
1945.000000	100.036000
1944.000000	100.035419
1943.000000	100.035137
1942.000000	100.034798
1941.000000	100.034074
1940.000000	100.033049
1939.000000	100.031872
1938.000000	100.030343
1937.000000	100.028125
1936.000000	100.025221
1935.000000	100.022090
1934.000000	100.019469
1933.000000	100.018149
1932.000000	100.018552
1931.000000	100.020150
1930.000000	100.021694
1929.000000	100.022519
1928.000000	100.023228
1927.000000	100.024684
1926.000000	100.026577
1925.000000	100.027815
1924.000000	100.028032
1923.000000	100.027863
1922.000000	100.027782
1921.000000	100.027446
1920.000000	100.026382
1919.000000	100.024592
1918.000000	100.022232
1917.000000	100.019353
1916.000000	100.016104
1915.000000	100.012764
1914.000000	100.009592
1913.000000	100.006795
1912.000000	100.004574
1911.000000	100.002914
1910.000000	100.001468
1909.000000	99.999939
1908.000000	99.998460
1907.000000	99.997223
1906.000000	99.995736
1905.000000	99.993259
1904.000000	99.990062
1903.000000	99.987471
1902.000000	99.986294
1901.000000	99.985706
1900.000000	99.984188
1899.000000	99.981405
1898.000000	99.978440
1897.000000	99.976397
1896.000000	99.975476
1895.000000	99.975417
1894.000000	99.976127
1893.000000	99.977397
1892.000000	99.978412
1891.000000	99.978095
1890.000000	99.975928
1889.000000	99.972283
1888.000000	99.967864
1887.000000	99.963060
1886.000000	99.958242
1885.000000	99.954314
1884.000000	99.952409
1883.000000	99.953061
1882.000000	99.955883
1881.000000	99.959880
1880.000000	99.963911
1879.000000	99.967087
1878.000000	99.968897
1877.000000	99.969167
1876.000000	99.968159
1875.000000	99.966553
1874.000000	99.965074
1873.000000	99.964011
1872.000000	99.963175
1871.000000	99.962412
1870.000000	99.961963
1869.000000	99.961957
1868.000000	99.961725
1867.000000	99.960415
1866.000000	99.958362
1865.000000	99.957130
1864.000000	99.958011
1863.000000	99.960716
1862.000000	99.963748
1861.000000	99.965997
1860.000000	99.967566
1859.000000	99.968974
1858.000000	99.970229
1857.000000	99.971171
1856.000000	99.972289
1855.000000	99.974463
1854.000000	99.977811
1853.000000	99.981307
1852.000000	99.983740
1851.000000	99.985144
1850.000000	99.986771
1849.000000	99.989497
1848.000000	99.992587
1847.000000	99.994388
1846.000000	99.994126
1845.000000	99.992807
1844.000000	99.992542
1843.000000	99.994608
1842.000000	99.998360
1841.000000	100.002350
1840.000000	100.005618
1839.000000	100.007799
1838.000000	100.008784
1837.000000	100.008829
1836.000000	100.008656
1835.000000	100.009028
1834.000000	100.010226
1833.000000	100.011970
1832.000000	100.013619
1831.000000	100.014474
1830.000000	100.014073
1829.000000	100.012770
1828.000000	100.011646
1827.000000	100.011365
1826.000000	100.011602
1825.000000	100.011505
1824.000000	100.010746
1823.000000	100.009804
1822.000000	100.008959
1821.000000	100.007864
1820.000000	100.006383
1819.000000	100.005390
1818.000000	100.006074
1817.000000	100.008526
1816.000000	100.011382
1815.000000	100.013092
1814.000000	100.013261
1813.000000	100.012479
1812.000000	100.011400
1811.000000	100.010201
1810.000000	100.008912
1809.000000	100.007992
1808.000000	100.008082
1807.000000	100.009119
1806.000000	100.010110
1805.000000	100.010052
1804.000000	100.009072
1803.000000	100.008363
1802.000000	100.008898
1801.000000	100.010183
1800.000000	100.010802
1799.000000	100.010243
1798.000000	100.009396
1797.000000	100.009213
1796.000000	100.009548
1795.000000	100.009465
1794.000000	100.008421
1793.000000	100.006942
1792.000000	100.006290
1791.000000	100.007199
1790.000000	100.009228
1789.000000	100.011465
1788.000000	100.013359
1787.000000	100.014913
1786.000000	100.016503
1785.000000	100.018536
1784.000000	100.021024
1783.000000	100.023448
1782.000000	100.025269
1781.000000	100.026306
1780.000000	100.026854
1779.000000	100.027434
1778.000000	100.028226
1777.000000	100.028945
1776.000000	100.029329
1775.000000	100.029704
1774.000000	100.030793
1773.000000	100.032753
1772.000000	100.034588
1771.000000	100.035383
1770.000000	100.035531
1769.000000	100.036081
1768.000000	100.037585
1767.000000	100.039685
1766.000000	100.041601
1765.000000	100.043014
1764.000000	100.044227
1763.000000	100.045667
1762.000000	100.047377
1761.000000	100.048963
1760.000000	100.050153
1759.000000	100.051061
1758.000000	100.051960
1757.000000	100.052976
1756.000000	100.054020
1755.000000	100.055011
1754.000000	100.056011
1753.000000	100.057140
1752.000000	100.058420
1751.000000	100.059700
1750.000000	100.060789
1749.000000	100.061668
1748.000000	100.062469
1747.000000	100.063316
1746.000000	100.064197
1745.000000	100.064959
1744.000000	100.065463
1743.000000	100.065754
1742.000000	100.066062
1741.000000	100.066600
1740.000000	100.067369
1739.000000	100.068127
1738.000000	100.068611
1737.000000	100.068743
1736.000000	100.068592
1735.000000	100.068361
1734.000000	100.068379
1733.000000	100.068882
1732.000000	100.069732
1731.000000	100.070519
1730.000000	100.070949
1729.000000	100.070955
1728.000000	100.070635
1727.000000	100.070173
1726.000000	100.069745
1725.000000	100.069455
1724.000000	100.069285
1723.000000	100.069097
1722.000000	100.068762
1721.000000	100.068312
1720.000000	100.067939
1719.000000	100.067837
1718.000000	100.067885
1717.000000	100.067675
1716.000000	100.067153
1715.000000	100.066667
1714.000000	100.066482
1713.000000	100.066631
1712.000000	100.066912
1711.000000	100.066941
1710.000000	100.066387
1709.000000	100.065220
1708.000000	100.063725
1707.000000	100.062299
1706.000000	100.061198
1705.000000	100.060357
1704.000000	100.059472
1703.000000	100.058327
1702.000000	100.057079
1701.000000	100.056050
1700.000000	100.055271
1699.000000	100.054571
1698.000000	100.053813
1697.000000	100.053061
1696.000000	100.052509
1695.000000	100.052133
1694.000000	100.051767
1693.000000	100.051212
1692.000000	100.050367
1691.000000	100.049324
1690.000000	100.048348
1689.000000	100.047640
1688.000000	100.047100
1687.000000	100.046484
1686.000000	100.045707
1685.000000	100.044884
1684.000000	100.044153
1683.000000	100.043483
1682.000000	100.042771
1681.000000	100.042024
1680.000000	100.041333
1679.000000	100.040708
1678.000000	100.040058
1677.000000	100.039319
1676.000000	100.038537
1675.000000	100.037796
1674.000000	100.037112
1673.000000	100.036412
1672.000000	100.035636
1671.000000	100.034806
1670.000000	100.034005
1669.000000	100.033323
1668.000000	100.032786
1667.000000	100.032365
1666.000000	100.032003
1665.000000	100.031619
1664.000000	100.031095
1663.000000	100.030345
1662.000000	100.029410
1661.000000	100.028477
1660.000000	100.027670
1659.000000	100.026998
1658.000000	100.026431
1657.000000	100.025939
1656.000000	100.025526
1655.000000	100.025258
1654.000000	100.025037
1653.000000	100.024358
1652.000000	100.023178
1651.000000	100.022144
1650.000000	100.021377
1649.000000	100.020713
1648.000000	100.020066
1647.000000	100.019253
1646.000000	100.018147
1645.000000	100.016998
1644.000000	100.016066
1643.000000	100.015252
1642.000000	100.014402
1641.000000	100.013613
1640.000000	100.013108
1639.000000	100.012896
1638.000000	100.012671
1637.000000	100.012135
1636.000000	100.011274
1635.000000	100.010474
1634.000000	100.010122
1633.000000	100.010072
1632.000000	100.009942
1631.000000	100.009467
1630.000000	100.008514
1629.000000	100.007289
1628.000000	100.006465
1627.000000	100.006542
1626.000000	100.007207
1625.000000	100.007670
1624.000000	100.007572
1623.000000	100.007201
1622.000000	100.006896
1621.000000	100.006483
1620.000000	100.005522
1619.000000	100.004071
1618.000000	100.002734
1617.000000	100.001917
1616.000000	100.001581
1615.000000	100.001908
1614.000000	100.002958
1613.000000	100.004481
1612.000000	100.006336
1611.000000	100.008423
1610.000000	100.010503
1609.000000	100.012237
1608.000000	100.013384
1607.000000	100.013812
1606.000000	100.013594
1605.000000	100.012961
1604.000000	100.012354
1603.000000	100.012546
1602.000000	100.014141
1601.000000	100.016757
1600.000000	100.019212
1599.000000	100.020713
1598.000000	100.021625
1597.000000	100.022799
1596.000000	100.024334
1595.000000	100.025349
1594.000000	100.025100
1593.000000	100.023962
1592.000000	100.023051
1591.000000	100.023114
1590.000000	100.024096
1589.000000	100.025513
1588.000000	100.026914
1587.000000	100.027992
1586.000000	100.028591
1585.000000	100.028902
1584.000000	100.029341
1583.000000	100.030279
1582.000000	100.031869
1581.000000	100.033910
1580.000000	100.035847
1579.000000	100.037060
1578.000000	100.037196
1577.000000	100.036124
1576.000000	100.034097
1575.000000	100.032065
1574.000000	100.030576
1573.000000	100.029128
1572.000000	100.027650
1571.000000	100.027160
1570.000000	100.028456
1569.000000	100.030609
1568.000000	100.031856
1567.000000	100.031833
1566.000000	100.031472
1565.000000	100.031773
1564.000000	100.032788
1563.000000	100.034042
1562.000000	100.035290
1561.000000	100.036750
1560.000000	100.037206
1559.000000	100.034407
1558.000000	100.030544
1557.000000	100.029559
1556.000000	100.029984
1555.000000	100.029599
1554.000000	100.028761
1553.000000	100.028686
1552.000000	100.029241
1551.000000	100.028901
1550.000000	100.026815
1549.000000	100.024054
1548.000000	100.022384
1547.000000	100.022110
1546.000000	100.021981
1545.000000	100.020431
1544.000000	100.016888
1543.000000	100.012143
1542.000000	100.007285
1541.000000	100.002751
1540.000000	99.998617
1539.000000	99.995746
1538.000000	99.995152
1537.000000	99.996105
1536.000000	99.997243
1535.000000	99.998067
1534.000000	99.998661
1533.000000	99.998900
1532.000000	99.998398
1531.000000	99.996854
1530.000000	99.994219
1529.000000	99.990829
1528.000000	99.987140
1527.000000	99.983304
1526.000000	99.979380
1525.000000	99.975777
1524.000000	99.973079
1523.000000	99.971818
1522.000000	99.972416
1521.000000	99.974438
1520.000000	99.976402
1519.000000	99.976939
1518.000000	99.975519
1517.000000	99.972554
1516.000000	99.969249
1515.000000	99.966544
1514.000000	99.964426
1513.000000	99.962611
1512.000000	99.961117
1511.000000	99.959836
1510.000000	99.958324
1509.000000	99.956438
1508.000000	99.954951
1507.000000	99.954476
1506.000000	99.953928
1505.000000	99.952847
1504.000000	99.951781
1503.000000	99.950691
1502.000000	99.949358
1501.000000	99.947702
1500.000000	99.945769
1499.000000	99.943854
1498.000000	99.942387
1497.000000	99.941471
1496.000000	99.940839
1495.000000	99.940227
1494.000000	99.939521
1493.000000	99.938812
1492.000000	99.938486
1491.000000	99.938803
1490.000000	99.939271
1489.000000	99.938926
1488.000000	99.937444
1487.000000	99.935337
1486.000000	99.933363
1485.000000	99.932248
1484.000000	99.932146
1483.000000	99.932553
1482.000000	99.932764
1481.000000	99.932420
1480.000000	99.931661
1479.000000	99.930699
1478.000000	99.929589
1477.000000	99.928530
1476.000000	99.928187
1475.000000	99.929259
1474.000000	99.931939
1473.000000	99.935300
1472.000000	99.937563
1471.000000	99.938211
1470.000000	99.938245
1469.000000	99.938434
1468.000000	99.938714
1467.000000	99.938656
1466.000000	99.938375
1465.000000	99.938929
1464.000000	99.941017
1463.000000	99.943812
1462.000000	99.945865
1461.000000	99.946655
1460.000000	99.946719
1459.000000	99.946982
1458.000000	99.947710
1457.000000	99.948055
1456.000000	99.947907
1455.000000	99.948318
1454.000000	99.949482
1453.000000	99.950939
1452.000000	99.952327
1451.000000	99.953168
1450.000000	99.953056
1449.000000	99.952193
1448.000000	99.951637
1447.000000	99.952307
1446.000000	99.953980
1445.000000	99.955615
1444.000000	99.956464
1443.000000	99.956726
1442.000000	99.957171
1441.000000	99.958294
1440.000000	99.959897
1439.000000	99.961491
1438.000000	99.962755
1437.000000	99.963649
1436.000000	99.964442
1435.000000	99.965427
1434.000000	99.966449
1433.000000	99.967276
1432.000000	99.968176
1431.000000	99.969764
1430.000000	99.972325
1429.000000	99.975380
1428.000000	99.978172
1427.000000	99.980364
1426.000000	99.982147
1425.000000	99.983762
1424.000000	99.985143
1423.000000	99.986233
1422.000000	99.987365
1421.000000	99.989109
1420.000000	99.991694
1419.000000	99.994473
1418.000000	99.996522
1417.000000	99.997863
1416.000000	99.999213
1415.000000	100.001046
1414.000000	100.003233
1413.000000	100.005281
1412.000000	100.006950
1411.000000	100.008536
1410.000000	100.010387
1409.000000	100.012318
1408.000000	100.013822
1407.000000	100.014817
1406.000000	100.015961
1405.000000	100.018014
1404.000000	100.020924
1403.000000	100.023992
1402.000000	100.026842
1401.000000	100.029684
1400.000000	100.032569
1399.000000	100.034937
1398.000000	100.036378
1397.000000	100.037370
1396.000000	100.038735
1395.000000	100.040599
1394.000000	100.042350
1393.000000	100.043628
1392.000000	100.044807
1391.000000	100.046431
1390.000000	100.048623
1389.000000	100.050922
1388.000000	100.052503
1387.000000	100.052859
1386.000000	100.052568
1385.000000	100.053040
1384.000000	100.055224
1383.000000	100.058800
1382.000000	100.062245
1381.000000	100.064176
1380.000000	100.064603
1379.000000	100.064662
1378.000000	100.065297
1377.000000	100.066493
1376.000000	100.067793
1375.000000	100.068851
1374.000000	100.069407
1373.000000	100.069286
1372.000000	100.068753
1371.000000	100.068378
1370.000000	100.068399
1369.000000	100.068452
1368.000000	100.068163
1367.000000	100.067794
1366.000000	100.067847
1365.000000	100.068248
1364.000000	100.068474
1363.000000	100.068404
1362.000000	100.068423
1361.000000	100.068474
1360.000000	100.067882
1359.000000	100.066526
1358.000000	100.065447
1357.000000	100.065795
1356.000000	100.067526
1355.000000	100.069496
1354.000000	100.070713
1353.000000	100.071015
1352.000000	100.070657
1351.000000	100.069940
1350.000000	100.069402
1349.000000	100.069650
1348.000000	100.070645
1347.000000	100.071635
1346.000000	100.072000
1345.000000	100.071720
1344.000000	100.070977
1343.000000	100.069916
1342.000000	100.069012
1341.000000	100.069015
1340.000000	100.069966
1339.000000	100.070938
1338.000000	100.071412
1337.000000	100.071971
1336.000000	100.072836
1335.000000	100.072865
1334.000000	100.070946
1333.000000	100.067628
1332.000000	100.064625
1331.000000	100.062997
1330.000000	100.062685
1329.000000	100.063521
1328.000000	100.065502
1327.000000	100.068038
1326.000000	100.070084
1325.000000	100.071326
1324.000000	100.072342
1323.000000	100.073320
1322.000000	100.073446
1321.000000	100.072065
1320.000000	100.069840
1319.000000	100.068214
1318.000000	100.067946
1317.000000	100.068661
1316.000000	100.069626
1315.000000	100.070420
1314.000000	100.070957
1313.000000	100.071283
1312.000000	100.071406
1311.000000	100.071229
1310.000000	100.070767
1309.000000	100.070429
1308.000000	100.070764
1307.000000	100.071627
1306.000000	100.071923
1305.000000	100.070624
1304.000000	100.068008
1303.000000	100.065587
1302.000000	100.064645
1301.000000	100.064988
1300.000000	100.065305
1299.000000	100.064553
1298.000000	100.062796
1297.000000	100.060772
1296.000000	100.058972
1295.000000	100.057269
1294.000000	100.055161
1293.000000	100.052096
1292.000000	100.047839
1291.000000	100.043113
1290.000000	100.039810
1289.000000	100.039673
1288.000000	100.042173
1287.000000	100.044153
1286.000000	100.042598
1285.000000	100.037662
1284.000000	100.032294
1283.000000	100.028833
1282.000000	100.026715
1281.000000	100.023935
1280.000000	100.020012
1279.000000	100.016514
1278.000000	100.014765
1277.000000	100.013936
1276.000000	100.011948
1275.000000	100.008048
1274.000000	100.004057
1273.000000	100.002714
1272.000000	100.004669
1271.000000	100.007412
1270.000000	100.007715
1269.000000	100.005072
1268.000000	100.001948
1267.000000	100.000516
1266.000000	100.000024
1265.000000	99.998061
1264.000000	99.993927
1263.000000	99.989743
1262.000000	99.987977
1261.000000	99.988388
1260.000000	99.987993
1259.000000	99.984295
1258.000000	99.978222
1257.000000	99.973143
1256.000000	99.970688
1255.000000	99.968355
1254.000000	99.962340
1253.000000	99.952449
1252.000000	99.942645
1251.000000	99.936233
1250.000000	99.931982
1249.000000	99.926262
1248.000000	99.917846
1247.000000	99.908895
1246.000000	99.901688
1245.000000	99.896167
1244.000000	99.891015
1243.000000	99.885605
1242.000000	99.880089
1241.000000	99.874398
1240.000000	99.867937
1239.000000	99.860027
1238.000000	99.850326
1237.000000	99.839110
1236.000000	99.827098
1235.000000	99.814626
1234.000000	99.801176
1233.000000	99.786284
1232.000000	99.770703
1231.000000	99.755715
1230.000000	99.741370
1229.000000	99.726582
1228.000000	99.711011
1227.000000	99.695206
1226.000000	99.678194
1225.000000	99.656486
1224.000000	99.627115
1223.000000	99.591115
1222.000000	99.552680
1221.000000	99.515047
1220.000000	99.478363
1219.000000	99.441408
1218.000000	99.403773
1217.000000	99.365615
1216.000000	99.326087
1215.000000	99.283003
1214.000000	99.234442
1213.000000	99.180724
1212.000000	99.124691
1211.000000	99.069802
1210.000000	99.018075
1209.000000	98.970056
1208.000000	98.925856
1207.000000	98.884727
1206.000000	98.844033
1205.000000	98.800730
1204.000000	98.754399
1203.000000	98.707419
1202.000000	98.661825
1201.000000	98.617269
1200.000000	98.572232
1199.000000	98.525814
1198.000000	98.478115
1197.000000	98.430504
1196.000000	98.385673
1195.000000	98.345279
1194.000000	98.306710
1193.000000	98.264339
1192.000000	98.215297
1191.000000	98.162481
1190.000000	98.110643
1189.000000	98.060876
1188.000000	98.010553
1187.000000	97.957777
1186.000000	97.904179
1185.000000	97.853284
1184.000000	97.806751
1183.000000	97.762209
1182.000000	97.714850
1181.000000	97.661659
1180.000000	97.603580
1179.000000	97.542684
1178.000000	97.478337
1177.000000	97.408192
1176.000000	97.332415
1175.000000	97.254398
1174.000000	97.177133
1173.000000	97.101457
1172.000000	97.028400
1171.000000	96.960417
1170.000000	96.898950
1169.000000	96.842756
1168.000000	96.789680
1167.000000	96.738684
1166.000000	96.690517
1165.000000	96.649193
1164.000000	96.622940
1163.000000	96.619981
1162.000000	96.641068
1161.000000	96.677072
1160.000000	96.714200
1159.000000	96.740586
1158.000000	96.749210
1157.000000	96.738188
1156.000000	96.709838
1155.000000	96.668191
1154.000000	96.616742
1153.000000	96.558981
1152.000000	96.499678
1151.000000	96.442913
1150.000000	96.388954
1149.000000	96.335538
1148.000000	96.281936
1147.000000	96.229040
1146.000000	96.176032
1145.000000	96.120617
1144.000000	96.063079
1143.000000	96.006912
1142.000000	95.954640
1141.000000	95.905647
1140.000000	95.858390
1139.000000	95.811615
1138.000000	95.762957
1137.000000	95.709658
1136.000000	95.651881
1135.000000	95.593150
1134.000000	95.536939
1133.000000	95.484608
1132.000000	95.436066
1131.000000	95.389793
1130.000000	95.342800
1129.000000	95.293448
1128.000000	95.243413
1127.000000	95.194110
1126.000000	95.143261
1125.000000	95.089184
1124.000000	95.036503
1123.000000	94.992012
1122.000000	94.955653
1121.000000	94.920826
1120.000000	94.882921
1119.000000	94.842036
1118.000000	94.798188
1117.000000	94.750556
1116.000000	94.701738
1115.000000	94.656459
1114.000000	94.615390
1113.000000	94.576066
1112.000000	94.539874
1111.000000	94.511009
1110.000000	94.487378
1109.000000	94.459389
1108.000000	94.420309
1107.000000	94.373321
1106.000000	94.327258
1105.000000	94.289910
1104.000000	94.265481
1103.000000	94.252416
1102.000000	94.242360
1101.000000	94.226450
1100.000000	94.203733
1099.000000	94.179554
1098.000000	94.157137
1097.000000	94.136336
1096.000000	94.118893
1095.000000	94.107437
1094.000000	94.099305
1093.000000	94.088619
1092.000000	94.075239
1091.000000	94.065409
1090.000000	94.063151
1089.000000	94.066804
1088.000000	94.073595
1087.000000	94.081433
1086.000000	94.087156
1085.000000	94.089841
1084.000000	94.094895
1083.000000	94.107704
1082.000000	94.124288
1081.000000	94.136179
1080.000000	94.143705
1079.000000	94.155658
1078.000000	94.175520
1077.000000	94.196535
1076.000000	94.211438
1075.000000	94.218740
1074.000000	94.218297
1073.000000	94.208719
1072.000000	94.190541
1071.000000	94.164549
1070.000000	94.125782
1069.000000	94.066724
1068.000000	93.987729
1067.000000	93.897190
1066.000000	93.800181
1065.000000	93.695040
1064.000000	93.583303
1063.000000	93.474083
1062.000000	93.374819
1061.000000	93.285350
1060.000000	93.204868
1059.000000	93.137102
1058.000000	93.084490
1057.000000	93.043767
1056.000000	93.010770
1055.000000	92.983239
1054.000000	92.955963
1053.000000	92.920386
1052.000000	92.873579
1051.000000	92.821932
1050.000000	92.771821
1049.000000	92.722428
1048.000000	92.671062
1047.000000	92.618558
1046.000000	92.565973
1045.000000	92.512243
1044.000000	92.457732
1043.000000	92.404850
1042.000000	92.353797
1041.000000	92.303154
1040.000000	92.255518
1039.000000	92.216369
1038.000000	92.186087
1037.000000	92.159217
1036.000000	92.132952
1035.000000	92.110430
1034.000000	92.094662
1033.000000	92.085220
1032.000000	92.081562
1031.000000	92.083559
1030.000000	92.088246
1029.000000	92.092049
1028.000000	92.096242
1027.000000	92.104132
1026.000000	92.113585
1025.000000	92.119395
1024.000000	92.122710
1023.000000	92.130646
1022.000000	92.146294
1021.000000	92.165853
1020.000000	92.185204
1019.000000	92.202373
1018.000000	92.214316
1017.000000	92.218989
1016.000000	92.220350
1015.000000	92.224220
1014.000000	92.230044
1013.000000	92.234007
1012.000000	92.238556
1011.000000	92.250059
1010.000000	92.268211
1009.000000	92.287071
1008.000000	92.306211
1007.000000	92.331139
1006.000000	92.362174
1005.000000	92.392629
1004.000000	92.419564
1003.000000	92.447628
1002.000000	92.480443
1001.000000	92.516303
1000.000000	92.553859
999.000000	92.594155
998.000000	92.635403
997.000000	92.673431
996.000000	92.708949
995.000000	92.747516
994.000000	92.791482
993.000000	92.838921
992.000000	92.890519
991.000000	92.949345
990.000000	93.012948
989.000000	93.073979
988.000000	93.130302
987.000000	93.186912
986.000000	93.246667
985.000000	93.307353
984.000000	93.369456
983.000000	93.438230
982.000000	93.515058
981.000000	93.594323
980.000000	93.672183
979.000000	93.751867
978.000000	93.836993
977.000000	93.925622
976.000000	94.013997
975.000000	94.101300
974.000000	94.188452
973.000000	94.276759
972.000000	94.368986
971.000000	94.466534
970.000000	94.564225
969.000000	94.653457
968.000000	94.732362
967.000000	94.807974
966.000000	94.886951
965.000000	94.969022
964.000000	95.050973
963.000000	95.131601
962.000000	95.210551
961.000000	95.287139
960.000000	95.362572
959.000000	95.438977
958.000000	95.514185
957.000000	95.581888
956.000000	95.639542
955.000000	95.692638
954.000000	95.748982
953.000000	95.811379
952.000000	95.877346
951.000000	95.942598
950.000000	96.002950
949.000000	96.055982
948.000000	96.103103
947.000000	96.148291
946.000000	96.193723
945.000000	96.238208
944.000000	96.279807
943.000000	96.317720
942.000000	96.352314
941.000000	96.386299
940.000000	96.424948
939.000000	96.471183
938.000000	96.520761
937.000000	96.566370
936.000000	96.606061
935.000000	96.643636
934.000000	96.681548
933.000000	96.718645
932.000000	96.755075
931.000000	96.793520
930.000000	96.833988
929.000000	96.872490
928.000000	96.906835
927.000000	96.939283
926.000000	96.971646
925.000000	97.002169
924.000000	97.029571
923.000000	97.056309
922.000000	97.085344
921.000000	97.116773
920.000000	97.149610
919.000000	97.183528
918.000000	97.216771
917.000000	97.245777
916.000000	97.269592
915.000000	97.292217
914.000000	97.318296
913.000000	97.348727
912.000000	97.382594
911.000000	97.420852
910.000000	97.465101
909.000000	97.514213
908.000000	97.564914
907.000000	97.615436
906.000000	97.667001
905.000000	97.721755
904.000000	97.780038
903.000000	97.839721
902.000000	97.898153
901.000000	97.954514
900.000000	98.009297
899.000000	98.061917
898.000000	98.111593
897.000000	98.161541
896.000000	98.218567
895.000000	98.285056
894.000000	98.353596
893.000000	98.413600
892.000000	98.461546
891.000000	98.500870
890.000000	98.534109
889.000000	98.560676
888.000000	98.582614
887.000000	98.606809
886.000000	98.638577
885.000000	98.676243
884.000000	98.714232
883.000000	98.748718
882.000000	98.778622
881.000000	98.803998
880.000000	98.825974
879.000000	98.847010
878.000000	98.869800
877.000000	98.896815
876.000000	98.930552
875.000000	98.971323
874.000000	99.014437
873.000000	99.053299
872.000000	99.086785
871.000000	99.120582
870.000000	99.159507
869.000000	99.200757
868.000000	99.236601
867.000000	99.262088
866.000000	99.278987
865.000000	99.293999
864.000000	99.314172
863.000000	99.342610
862.000000	99.377435
861.000000	99.415296
860.000000	99.455310
859.000000	99.497851
858.000000	99.540229
857.000000	99.576798
856.000000	99.604326
855.000000	99.625255
854.000000	99.644870
853.000000	99.666742
852.000000	99.691181
851.000000	99.716102
850.000000	99.738685
849.000000	99.757816
848.000000	99.775350
847.000000	99.793750
846.000000	99.812789
845.000000	99.830073
844.000000	99.843896
843.000000	99.853429
842.000000	99.857577
841.000000	99.857094
840.000000	99.856709
839.000000	99.860558
838.000000	99.865323
837.000000	99.862692
836.000000	99.849734
835.000000	99.832515
834.000000	99.818246
833.000000	99.808618
832.000000	99.802739
831.000000	99.800848
830.000000	99.801130
829.000000	99.798257
828.000000	99.791471
827.000000	99.790895
826.000000	99.808083
825.000000	99.840090
824.000000	99.868890
823.000000	99.877533
822.000000	99.863034
821.000000	99.834164
820.000000	99.801489
819.000000	99.769513
818.000000	99.734026
817.000000	99.686462
816.000000	99.622836
815.000000	99.546970
814.000000	99.462176
813.000000	99.361949
812.000000	99.233434
811.000000	99.069018
810.000000	98.870067
809.000000	98.640356
808.000000	98.381418
807.000000	98.094879
806.000000	97.784811
805.000000	97.458137
804.000000	97.127479
803.000000	96.812359
802.000000	96.531426
801.000000	96.293877
800.000000	96.103348
799.000000	95.967439
798.000000	95.895858
797.000000	95.888981
796.000000	95.933182
795.000000	96.007763
794.000000	96.094182
793.000000	96.180390
792.000000	96.260496
791.000000	96.331261
790.000000	96.386923
789.000000	96.416840
788.000000	96.409832
787.000000	96.361705
786.000000	96.277947
785.000000	96.169266
784.000000	96.046126
783.000000	95.917662
782.000000	95.793612
781.000000	95.685867
780.000000	95.607740
779.000000	95.570060
778.000000	95.576411
777.000000	95.622712
776.000000	95.701705
775.000000	95.806304
774.000000	95.928782
773.000000	96.059873
772.000000	96.191072
771.000000	96.317738
770.000000	96.439411
769.000000	96.556998
768.000000	96.669257
767.000000	96.771843
766.000000	96.860494
765.000000	96.935833
764.000000	97.004735
763.000000	97.076216
762.000000	97.155479
761.000000	97.241275
760.000000	97.328137
759.000000	97.411021
758.000000	97.488534
757.000000	97.562061
756.000000	97.631829
755.000000	97.694950
754.000000	97.748809
753.000000	97.795932
752.000000	97.843823
751.000000	97.899401
750.000000	97.963651
749.000000	98.030763
748.000000	98.091655
747.000000	98.139883
746.000000	98.176595
745.000000	98.209758
744.000000	98.247164
743.000000	98.290713
742.000000	98.338328
741.000000	98.388829
740.000000	98.441647
739.000000	98.493487
738.000000	98.539874
737.000000	98.580187
736.000000	98.617432
735.000000	98.652740
734.000000	98.683703
733.000000	98.708353
732.000000	98.727437
731.000000	98.742850
730.000000	98.757321
729.000000	98.775396
728.000000	98.799942
727.000000	98.826445
726.000000	98.845588
725.000000	98.854358
724.000000	98.861367
723.000000	98.878281
722.000000	98.908229
721.000000	98.944813
720.000000	98.979944
719.000000	99.009952
718.000000	99.035683
717.000000	99.059566
716.000000	99.082909
715.000000	99.105197
714.000000	99.126175
713.000000	99.147696
712.000000	99.171139
711.000000	99.193474
710.000000	99.209522
709.000000	99.218650
708.000000	99.225365
707.000000	99.231839
706.000000	99.233232
705.000000	99.222003
704.000000	99.193310
703.000000	99.143889
702.000000	99.068938
701.000000	98.963405
700.000000	98.825189
699.000000	98.656900
698.000000	98.469325
697.000000	98.285873
696.000000	98.138309
695.000000	98.051786
694.000000	98.034259
693.000000	98.080200
692.000000	98.177337
691.000000	98.305694
690.000000	98.437681
689.000000	98.549680
688.000000	98.635842
687.000000	98.706639
686.000000	98.773913
685.000000	98.841448
684.000000	98.907897
683.000000	98.971587
682.000000	99.030693
681.000000	99.082815
680.000000	99.127089
679.000000	99.166093
678.000000	99.204231
677.000000	99.244457
676.000000	99.285384
675.000000	99.321018
674.000000	99.346316
673.000000	99.361907
672.000000	99.371217
671.000000	99.374821
670.000000	99.372166
669.000000	99.371980
668.000000	99.393186
667.000000	99.436949
666.000000	99.480805
665.000000	99.512919
664.000000	99.537780
663.000000	99.557621
662.000000	99.566525
661.000000	99.561285
660.000000	99.551144
659.000000	99.550149
658.000000	99.563624
657.000000	99.586724
656.000000	99.611942
655.000000	99.630605
654.000000	99.633550
653.000000	99.619314
652.000000	99.600480
651.000000	99.596344
650.000000	99.617176
649.000000	99.658706
648.000000	99.709443
647.000000	99.757214
646.000000	99.792028
645.000000	99.809284
644.000000	99.812298
643.000000	99.810837
642.000000	99.816167
641.000000	99.833613
640.000000	99.858888
639.000000	99.882329
638.000000	99.899254
637.000000	99.915487
636.000000	99.937712
635.000000	99.960615
634.000000	99.971651
633.000000	99.969347
632.000000	99.967789
631.000000	99.980454
630.000000	100.005970
629.000000	100.032578
628.000000	100.050615
627.000000	100.056572
626.000000	100.052973
625.000000	100.049753
624.000000	100.058343
623.000000	100.077460
622.000000	100.090518
621.000000	100.085991
620.000000	100.074029
619.000000	100.074371
618.000000	100.090517
617.000000	100.103942
616.000000	100.095303
615.000000	100.064127
614.000000	100.029068
613.000000	100.013456
612.000000	100.029135
611.000000	100.068300
610.000000	100.106975
609.000000	100.121500
608.000000	100.102954
607.000000	100.060010
606.000000	100.014342
605.000000	99.984275
604.000000	99.964361
603.000000	99.926179
602.000000	99.852433
601.000000	99.771308
600.000000	99.738697
599.000000	99.780686
598.000000	99.864534
597.000000	99.932319
596.000000	99.960891
595.000000	99.967461
594.000000	99.971962
593.000000	99.977469
592.000000	99.981083
591.000000	99.980944
590.000000	99.972085
589.000000	99.954226
588.000000	99.942582
587.000000	99.954000
586.000000	99.983025
585.000000	100.008879
584.000000	100.023499
583.000000	100.031075
582.000000	100.027149
581.000000	100.008281
580.000000	100.000782
579.000000	100.040714
578.000000	100.113183
577.000000	100.153153
576.000000	100.125558
575.000000	100.070897
574.000000	100.051818
573.000000	100.075031
572.000000	100.104271
571.000000	100.122348
570.000000	100.143159
569.000000	100.173447
568.000000	100.192473
567.000000	100.175873
566.000000	100.124766
565.000000	100.065603
564.000000	100.027560
563.000000	100.023357
562.000000	100.040620
561.000000	100.054451
560.000000	100.051464
559.000000	100.035953
558.000000	100.019640
557.000000	100.014833
556.000000	100.032369
555.000000	100.067562
554.000000	100.089197
553.000000	100.067449
552.000000	100.013968
551.000000	99.979305
550.000000	100.001361
