PE IR       SUBTECH     SPECTRUM    ASCII       PEDS        4.00        
   -1
BH1 8-5 19 0_1.asc
24/05/14
13:43:49.00
24/05/14
13:45:30.00
Administrator
?品 055 用? Administrator 日期 Tuesday, May 14 2024
550.000000
#HDR
-1
-1
#GR
cm-1
%T
1.0
0.0
4000.000000
-1.000000
3451
8
100.392435
75.594697
#DATA
4000.000000	100.132196
3999.000000	100.132903
3998.000000	100.131054
3997.000000	100.125868
3996.000000	100.118473
3995.000000	100.111639
3994.000000	100.107312
3993.000000	100.105816
3992.000000	100.106411
3991.000000	100.108017
3990.000000	100.109701
3989.000000	100.110808
3988.000000	100.111018
3987.000000	100.110335
3986.000000	100.108905
3985.000000	100.106913
3984.000000	100.104836
3983.000000	100.103612
3982.000000	100.103977
3981.000000	100.105643
3980.000000	100.107462
3979.000000	100.108269
3978.000000	100.107718
3977.000000	100.106284
3976.000000	100.104654
3975.000000	100.103250
3974.000000	100.102155
3973.000000	100.101308
3972.000000	100.100645
3971.000000	100.100056
3970.000000	100.099367
3969.000000	100.098512
3968.000000	100.097703
3967.000000	100.097277
3966.000000	100.097336
3965.000000	100.097612
3964.000000	100.097732
3963.000000	100.097555
3962.000000	100.097208
3961.000000	100.096891
3960.000000	100.096727
3959.000000	100.096734
3958.000000	100.096827
3957.000000	100.096869
3956.000000	100.096778
3955.000000	100.096604
3954.000000	100.096483
3953.000000	100.096497
3952.000000	100.096629
3951.000000	100.096802
3950.000000	100.096944
3949.000000	100.097021
3948.000000	100.097050
3947.000000	100.097089
3946.000000	100.097198
3945.000000	100.097374
3944.000000	100.097521
3943.000000	100.097536
3942.000000	100.097404
3941.000000	100.097263
3940.000000	100.097300
3939.000000	100.097589
3938.000000	100.098016
3937.000000	100.098320
3936.000000	100.098327
3935.000000	100.098065
3934.000000	100.097782
3933.000000	100.097737
3932.000000	100.097998
3931.000000	100.098464
3930.000000	100.099030
3929.000000	100.099663
3928.000000	100.100359
3927.000000	100.101092
3926.000000	100.101779
3925.000000	100.102298
3924.000000	100.102573
3923.000000	100.102673
3922.000000	100.102737
3921.000000	100.102767
3920.000000	100.102631
3919.000000	100.102286
3918.000000	100.101926
3917.000000	100.101843
3916.000000	100.102141
3915.000000	100.102662
3914.000000	100.103102
3913.000000	100.103209
3912.000000	100.102923
3911.000000	100.102387
3910.000000	100.101847
3909.000000	100.101499
3908.000000	100.101414
3907.000000	100.101580
3906.000000	100.101907
3905.000000	100.102228
3904.000000	100.102374
3903.000000	100.102310
3902.000000	100.102190
3901.000000	100.102190
3900.000000	100.102308
3899.000000	100.102385
3898.000000	100.102303
3897.000000	100.102088
3896.000000	100.101849
3895.000000	100.101686
3894.000000	100.101648
3893.000000	100.101717
3892.000000	100.101805
3891.000000	100.101848
3890.000000	100.101855
3889.000000	100.101868
3888.000000	100.101900
3887.000000	100.101933
3886.000000	100.101945
3885.000000	100.101939
3884.000000	100.101931
3883.000000	100.101936
3882.000000	100.101961
3881.000000	100.102008
3880.000000	100.102081
3879.000000	100.102190
3878.000000	100.102337
3877.000000	100.102516
3876.000000	100.102710
3875.000000	100.102901
3874.000000	100.103083
3873.000000	100.103265
3872.000000	100.103473
3871.000000	100.103727
3870.000000	100.104036
3869.000000	100.104391
3868.000000	100.104781
3867.000000	100.105205
3866.000000	100.105631
3865.000000	100.105990
3864.000000	100.106250
3863.000000	100.106438
3862.000000	100.106628
3861.000000	100.106854
3860.000000	100.107114
3859.000000	100.107381
3858.000000	100.107624
3857.000000	100.107823
3856.000000	100.107994
3855.000000	100.108208
3854.000000	100.108541
3853.000000	100.108965
3852.000000	100.109380
3851.000000	100.109798
3850.000000	100.110257
3849.000000	100.110691
3848.000000	100.111040
3847.000000	100.111325
3846.000000	100.111562
3845.000000	100.111751
3844.000000	100.111940
3843.000000	100.112215
3842.000000	100.112588
3841.000000	100.112998
3840.000000	100.113432
3839.000000	100.113991
3838.000000	100.114725
3837.000000	100.115426
3836.000000	100.115775
3835.000000	100.115705
3834.000000	100.115499
3833.000000	100.115525
3832.000000	100.115880
3831.000000	100.116341
3830.000000	100.116693
3829.000000	100.116985
3828.000000	100.117346
3827.000000	100.117649
3826.000000	100.117557
3825.000000	100.116932
3824.000000	100.116018
3823.000000	100.115202
3822.000000	100.114720
3821.000000	100.114563
3820.000000	100.114635
3819.000000	100.115052
3818.000000	100.115775
3817.000000	100.116323
3816.000000	100.116438
3815.000000	100.116383
3814.000000	100.116586
3813.000000	100.117156
3812.000000	100.117670
3811.000000	100.117721
3810.000000	100.117457
3809.000000	100.117172
3808.000000	100.116789
3807.000000	100.116060
3806.000000	100.115115
3805.000000	100.114512
3804.000000	100.114556
3803.000000	100.114831
3802.000000	100.114678
3801.000000	100.113960
3800.000000	100.113143
3799.000000	100.112913
3798.000000	100.113428
3797.000000	100.114044
3796.000000	100.114012
3795.000000	100.113104
3794.000000	100.111578
3793.000000	100.109838
3792.000000	100.108226
3791.000000	100.107072
3790.000000	100.106687
3789.000000	100.107037
3788.000000	100.107772
3787.000000	100.108713
3786.000000	100.109821
3785.000000	100.110816
3784.000000	100.111219
3783.000000	100.110871
3782.000000	100.110222
3781.000000	100.109934
3780.000000	100.110291
3779.000000	100.111037
3778.000000	100.111698
3777.000000	100.111932
3776.000000	100.111489
3775.000000	100.110250
3774.000000	100.108581
3773.000000	100.107394
3772.000000	100.107403
3771.000000	100.108245
3770.000000	100.108665
3769.000000	100.107894
3768.000000	100.106536
3767.000000	100.105745
3766.000000	100.105926
3765.000000	100.106628
3764.000000	100.107408
3763.000000	100.108367
3762.000000	100.109769
3761.000000	100.111584
3760.000000	100.113700
3759.000000	100.116066
3758.000000	100.118186
3757.000000	100.119012
3756.000000	100.117806
3755.000000	100.115129
3754.000000	100.112644
3753.000000	100.111849
3752.000000	100.112693
3751.000000	100.113136
3750.000000	100.111075
3749.000000	100.106666
3748.000000	100.102158
3747.000000	100.099931
3746.000000	100.100578
3745.000000	100.102317
3744.000000	100.102223
3743.000000	100.099538
3742.000000	100.096905
3741.000000	100.095774
3740.000000	100.094004
3739.000000	100.090284
3738.000000	100.086356
3737.000000	100.084594
3736.000000	100.085205
3735.000000	100.086057
3734.000000	100.085248
3733.000000	100.082717
3732.000000	100.079489
3731.000000	100.076801
3730.000000	100.075744
3729.000000	100.076473
3728.000000	100.077560
3727.000000	100.076834
3726.000000	100.073159
3725.000000	100.067487
3724.000000	100.062158
3723.000000	100.058766
3722.000000	100.057120
3721.000000	100.056154
3720.000000	100.055057
3719.000000	100.053429
3718.000000	100.050690
3717.000000	100.046071
3716.000000	100.039530
3715.000000	100.032470
3714.000000	100.026918
3713.000000	100.023473
3712.000000	100.020002
3711.000000	100.013686
3710.000000	100.005197
3709.000000	99.998249
3708.000000	99.994546
3707.000000	99.991454
3706.000000	99.984552
3705.000000	99.972227
3704.000000	99.957848
3703.000000	99.946940
3702.000000	99.941327
3701.000000	99.937237
3700.000000	99.930456
3699.000000	99.921384
3698.000000	99.913395
3697.000000	99.908192
3696.000000	99.904580
3695.000000	99.901092
3694.000000	99.898346
3693.000000	99.898582
3692.000000	99.903922
3691.000000	99.914329
3690.000000	99.925507
3689.000000	99.930443
3688.000000	99.925580
3687.000000	99.914278
3686.000000	99.903003
3685.000000	99.894854
3684.000000	99.888302
3683.000000	99.881630
3682.000000	99.875361
3681.000000	99.870274
3680.000000	99.865270
3679.000000	99.858295
3678.000000	99.848756
3677.000000	99.837308
3676.000000	99.823725
3675.000000	99.806737
3674.000000	99.787880
3673.000000	99.772386
3672.000000	99.762429
3671.000000	99.754109
3670.000000	99.742432
3669.000000	99.726320
3668.000000	99.709592
3667.000000	99.696132
3666.000000	99.685087
3665.000000	99.672970
3664.000000	99.658139
3663.000000	99.642245
3662.000000	99.628120
3661.000000	99.616849
3660.000000	99.607231
3659.000000	99.597345
3658.000000	99.585765
3657.000000	99.571784
3656.000000	99.556155
3655.000000	99.541856
3654.000000	99.532726
3653.000000	99.529128
3652.000000	99.526090
3651.000000	99.517523
3650.000000	99.501559
3649.000000	99.481643
3648.000000	99.462335
3647.000000	99.444680
3646.000000	99.428175
3645.000000	99.414589
3644.000000	99.406031
3643.000000	99.401870
3642.000000	99.399008
3641.000000	99.394228
3640.000000	99.385741
3639.000000	99.373167
3638.000000	99.357265
3637.000000	99.340260
3636.000000	99.325320
3635.000000	99.314344
3634.000000	99.306717
3633.000000	99.300685
3632.000000	99.294840
3631.000000	99.286938
3630.000000	99.273657
3629.000000	99.254693
3628.000000	99.235888
3627.000000	99.225386
3626.000000	99.225650
3625.000000	99.230905
3624.000000	99.234193
3623.000000	99.234598
3622.000000	99.235693
3621.000000	99.240061
3620.000000	99.247076
3619.000000	99.255109
3618.000000	99.264468
3617.000000	99.276992
3616.000000	99.293018
3615.000000	99.309675
3614.000000	99.322501
3613.000000	99.329002
3612.000000	99.330715
3611.000000	99.331413
3610.000000	99.333571
3609.000000	99.337246
3608.000000	99.342227
3607.000000	99.349941
3606.000000	99.362043
3605.000000	99.377843
3604.000000	99.394362
3603.000000	99.408647
3602.000000	99.419546
3601.000000	99.427983
3600.000000	99.436159
3599.000000	99.445973
3598.000000	99.457083
3597.000000	99.466294
3596.000000	99.470069
3595.000000	99.468158
3594.000000	99.464279
3593.000000	99.462545
3592.000000	99.463724
3591.000000	99.465467
3590.000000	99.465638
3589.000000	99.465020
3588.000000	99.466513
3587.000000	99.471471
3586.000000	99.478054
3585.000000	99.483504
3584.000000	99.486505
3583.000000	99.487155
3582.000000	99.485797
3581.000000	99.482620
3580.000000	99.478131
3579.000000	99.473361
3578.000000	99.469506
3577.000000	99.467451
3576.000000	99.467695
3575.000000	99.470088
3574.000000	99.473196
3573.000000	99.474487
3572.000000	99.472060
3571.000000	99.466484
3570.000000	99.460595
3569.000000	99.456956
3568.000000	99.455065
3567.000000	99.451975
3566.000000	99.446575
3565.000000	99.441657
3564.000000	99.440705
3563.000000	99.444315
3562.000000	99.449884
3561.000000	99.454112
3560.000000	99.455778
3559.000000	99.455930
3558.000000	99.455852
3557.000000	99.455586
3556.000000	99.454545
3555.000000	99.452934
3554.000000	99.452005
3553.000000	99.452846
3552.000000	99.455091
3551.000000	99.456979
3550.000000	99.456651
3549.000000	99.453451
3548.000000	99.448355
3547.000000	99.443575
3546.000000	99.441146
3545.000000	99.441446
3544.000000	99.443215
3543.000000	99.444888
3542.000000	99.445890
3541.000000	99.446578
3540.000000	99.447354
3539.000000	99.448159
3538.000000	99.448695
3537.000000	99.448899
3536.000000	99.449037
3535.000000	99.449324
3534.000000	99.449601
3533.000000	99.449535
3532.000000	99.449145
3531.000000	99.448975
3530.000000	99.449634
3529.000000	99.451199
3528.000000	99.453167
3527.000000	99.454938
3526.000000	99.456206
3525.000000	99.456856
3524.000000	99.456826
3523.000000	99.456344
3522.000000	99.456103
3521.000000	99.456846
3520.000000	99.458631
3519.000000	99.460627
3518.000000	99.461824
3517.000000	99.462063
3516.000000	99.462257
3515.000000	99.463480
3514.000000	99.465848
3513.000000	99.468292
3512.000000	99.469427
3511.000000	99.468600
3510.000000	99.466232
3509.000000	99.463407
3508.000000	99.461129
3507.000000	99.459965
3506.000000	99.460114
3505.000000	99.461512
3504.000000	99.463859
3503.000000	99.466568
3502.000000	99.468879
3501.000000	99.470279
3500.000000	99.470857
3499.000000	99.471256
3498.000000	99.472221
3497.000000	99.474051
3496.000000	99.476425
3495.000000	99.478647
3494.000000	99.480013
3493.000000	99.480091
3492.000000	99.478861
3491.000000	99.476743
3490.000000	99.474464
3489.000000	99.472778
3488.000000	99.472147
3487.000000	99.472413
3486.000000	99.472662
3485.000000	99.471689
3484.000000	99.468980
3483.000000	99.465377
3482.000000	99.462522
3481.000000	99.461339
3480.000000	99.461439
3479.000000	99.461997
3478.000000	99.462712
3477.000000	99.463564
3476.000000	99.464134
3475.000000	99.463838
3474.000000	99.462794
3473.000000	99.461838
3472.000000	99.461536
3471.000000	99.461605
3470.000000	99.461597
3469.000000	99.461734
3468.000000	99.462568
3467.000000	99.463955
3466.000000	99.464813
3465.000000	99.464084
3464.000000	99.461669
3463.000000	99.458418
3462.000000	99.455454
3461.000000	99.453458
3460.000000	99.452459
3459.000000	99.452004
3458.000000	99.451494
3457.000000	99.450547
3456.000000	99.449153
3455.000000	99.447555
3454.000000	99.446039
3453.000000	99.444787
3452.000000	99.443820
3451.000000	99.442985
3450.000000	99.442051
3449.000000	99.440974
3448.000000	99.440087
3447.000000	99.439897
3446.000000	99.440487
3445.000000	99.441153
3444.000000	99.440852
3443.000000	99.439119
3442.000000	99.436507
3441.000000	99.434188
3440.000000	99.432920
3439.000000	99.432478
3438.000000	99.432024
3437.000000	99.430940
3436.000000	99.429309
3435.000000	99.427568
3434.000000	99.425815
3433.000000	99.423615
3432.000000	99.420639
3431.000000	99.417480
3430.000000	99.415503
3429.000000	99.415624
3428.000000	99.417431
3427.000000	99.419483
3426.000000	99.420592
3425.000000	99.420657
3424.000000	99.420257
3423.000000	99.419752
3422.000000	99.418917
3421.000000	99.417414
3420.000000	99.415405
3419.000000	99.413550
3418.000000	99.412411
3417.000000	99.411957
3416.000000	99.411658
3415.000000	99.411022
3414.000000	99.410076
3413.000000	99.409412
3412.000000	99.409742
3411.000000	99.411289
3410.000000	99.413482
3409.000000	99.415224
3408.000000	99.415727
3407.000000	99.415118
3406.000000	99.414316
3405.000000	99.414225
3404.000000	99.415000
3403.000000	99.416039
3402.000000	99.416584
3401.000000	99.416329
3400.000000	99.415575
3399.000000	99.414965
3398.000000	99.414992
3397.000000	99.415661
3396.000000	99.416561
3395.000000	99.417282
3394.000000	99.417741
3393.000000	99.418120
3392.000000	99.418642
3391.000000	99.419467
3390.000000	99.420682
3389.000000	99.422210
3388.000000	99.423756
3387.000000	99.424985
3386.000000	99.425780
3385.000000	99.426327
3384.000000	99.426959
3383.000000	99.427930
3382.000000	99.429269
3381.000000	99.430820
3380.000000	99.432344
3379.000000	99.433656
3378.000000	99.434732
3377.000000	99.435708
3376.000000	99.436730
3375.000000	99.437818
3374.000000	99.438904
3373.000000	99.439943
3372.000000	99.440959
3371.000000	99.442002
3370.000000	99.443102
3369.000000	99.444263
3368.000000	99.445471
3367.000000	99.446695
3366.000000	99.447891
3365.000000	99.449039
3364.000000	99.450160
3363.000000	99.451288
3362.000000	99.452451
3361.000000	99.453654
3360.000000	99.454888
3359.000000	99.456140
3358.000000	99.457399
3357.000000	99.458656
3356.000000	99.459907
3355.000000	99.461146
3354.000000	99.462371
3353.000000	99.463585
3352.000000	99.464793
3351.000000	99.465997
3350.000000	99.467201
3349.000000	99.468408
3348.000000	99.469620
3347.000000	99.470841
3346.000000	99.472073
3345.000000	99.473319
3344.000000	99.474584
3343.000000	99.475866
3342.000000	99.477162
3341.000000	99.478464
3340.000000	99.479765
3339.000000	99.481061
3338.000000	99.482351
3337.000000	99.483636
3336.000000	99.484932
3335.000000	99.486272
3334.000000	99.487668
3333.000000	99.489091
3332.000000	99.490501
3331.000000	99.491876
3330.000000	99.493187
3329.000000	99.494390
3328.000000	99.495502
3327.000000	99.496662
3326.000000	99.498011
3325.000000	99.499517
3324.000000	99.501008
3323.000000	99.502375
3322.000000	99.503628
3321.000000	99.504813
3320.000000	99.506050
3319.000000	99.507562
3318.000000	99.509465
3317.000000	99.511504
3316.000000	99.513207
3315.000000	99.514334
3314.000000	99.515032
3313.000000	99.515594
3312.000000	99.516228
3311.000000	99.517178
3310.000000	99.518789
3309.000000	99.521170
3308.000000	99.523904
3307.000000	99.526329
3306.000000	99.528195
3305.000000	99.529780
3304.000000	99.531394
3303.000000	99.532974
3302.000000	99.534270
3301.000000	99.535242
3300.000000	99.536070
3299.000000	99.536845
3298.000000	99.537482
3297.000000	99.537919
3296.000000	99.538278
3295.000000	99.538775
3294.000000	99.539567
3293.000000	99.540715
3292.000000	99.542169
3291.000000	99.543729
3290.000000	99.545115
3289.000000	99.546171
3288.000000	99.547016
3287.000000	99.547901
3286.000000	99.548878
3285.000000	99.549723
3284.000000	99.550259
3283.000000	99.550621
3282.000000	99.551137
3281.000000	99.551983
3280.000000	99.553066
3279.000000	99.554170
3278.000000	99.555155
3277.000000	99.556018
3276.000000	99.556816
3275.000000	99.557592
3274.000000	99.558369
3273.000000	99.559163
3272.000000	99.559983
3271.000000	99.560819
3270.000000	99.561652
3269.000000	99.562462
3268.000000	99.563248
3267.000000	99.564020
3266.000000	99.564790
3265.000000	99.565564
3264.000000	99.566348
3263.000000	99.567142
3262.000000	99.567940
3261.000000	99.568744
3260.000000	99.569562
3259.000000	99.570407
3258.000000	99.571287
3257.000000	99.572197
3256.000000	99.573127
3255.000000	99.574062
3254.000000	99.574993
3253.000000	99.575921
3252.000000	99.576850
3251.000000	99.577791
3250.000000	99.578750
3249.000000	99.579733
3248.000000	99.580739
3247.000000	99.581761
3246.000000	99.582788
3245.000000	99.583815
3244.000000	99.584844
3243.000000	99.585885
3242.000000	99.586949
3241.000000	99.588036
3240.000000	99.589137
3239.000000	99.590237
3238.000000	99.591323
3237.000000	99.592389
3236.000000	99.593439
3235.000000	99.594480
3234.000000	99.595522
3233.000000	99.596570
3232.000000	99.597624
3231.000000	99.598683
3230.000000	99.599739
3229.000000	99.600789
3228.000000	99.601835
3227.000000	99.602885
3226.000000	99.603943
3225.000000	99.605014
3224.000000	99.606096
3223.000000	99.607187
3222.000000	99.608273
3221.000000	99.609337
3220.000000	99.610381
3219.000000	99.611454
3218.000000	99.612623
3217.000000	99.613906
3216.000000	99.615216
3215.000000	99.616429
3214.000000	99.617489
3213.000000	99.618478
3212.000000	99.619573
3211.000000	99.620912
3210.000000	99.622520
3209.000000	99.624305
3208.000000	99.626060
3207.000000	99.627525
3206.000000	99.628526
3205.000000	99.629117
3204.000000	99.629574
3203.000000	99.630179
3202.000000	99.631019
3201.000000	99.632000
3200.000000	99.633010
3199.000000	99.634042
3198.000000	99.635139
3197.000000	99.636320
3196.000000	99.637588
3195.000000	99.638942
3194.000000	99.640335
3193.000000	99.641643
3192.000000	99.642722
3191.000000	99.643516
3190.000000	99.644167
3189.000000	99.645047
3188.000000	99.646587
3187.000000	99.648946
3186.000000	99.651754
3185.000000	99.654252
3184.000000	99.655919
3183.000000	99.656924
3182.000000	99.657961
3181.000000	99.659554
3180.000000	99.661548
3179.000000	99.663327
3178.000000	99.664431
3177.000000	99.664894
3176.000000	99.665125
3175.000000	99.665606
3174.000000	99.666602
3173.000000	99.668082
3172.000000	99.669799
3171.000000	99.671415
3170.000000	99.672602
3169.000000	99.673181
3168.000000	99.673371
3167.000000	99.673803
3166.000000	99.675025
3165.000000	99.677005
3164.000000	99.679176
3163.000000	99.680982
3162.000000	99.682294
3161.000000	99.683254
3160.000000	99.683971
3159.000000	99.684558
3158.000000	99.685261
3157.000000	99.686304
3156.000000	99.687596
3155.000000	99.688793
3154.000000	99.689661
3153.000000	99.690264
3152.000000	99.690840
3151.000000	99.691621
3150.000000	99.692737
3149.000000	99.694122
3148.000000	99.695428
3147.000000	99.696234
3146.000000	99.696436
3145.000000	99.696407
3144.000000	99.696707
3143.000000	99.697720
3142.000000	99.699597
3141.000000	99.702222
3140.000000	99.705115
3139.000000	99.707610
3138.000000	99.709342
3137.000000	99.710480
3136.000000	99.711427
3135.000000	99.712403
3134.000000	99.713521
3133.000000	99.715081
3132.000000	99.717382
3131.000000	99.720150
3130.000000	99.722424
3129.000000	99.723360
3128.000000	99.722986
3127.000000	99.722219
3126.000000	99.722142
3125.000000	99.723183
3124.000000	99.725000
3123.000000	99.726889
3122.000000	99.728401
3121.000000	99.729692
3120.000000	99.731282
3119.000000	99.733455
3118.000000	99.735895
3117.000000	99.737973
3116.000000	99.739428
3115.000000	99.740671
3114.000000	99.742361
3113.000000	99.744673
3112.000000	99.747065
3111.000000	99.748782
3110.000000	99.749538
3109.000000	99.749669
3108.000000	99.749736
3107.000000	99.750013
3106.000000	99.750373
3105.000000	99.750596
3104.000000	99.750739
3103.000000	99.751159
3102.000000	99.752145
3101.000000	99.753543
3100.000000	99.754889
3099.000000	99.755940
3098.000000	99.756921
3097.000000	99.758088
3096.000000	99.759197
3095.000000	99.759702
3094.000000	99.759567
3093.000000	99.759563
3092.000000	99.760575
3091.000000	99.762810
3090.000000	99.765779
3089.000000	99.768764
3088.000000	99.771204
3087.000000	99.772739
3086.000000	99.773279
3085.000000	99.773213
3084.000000	99.773212
3083.000000	99.773731
3082.000000	99.774785
3081.000000	99.776124
3080.000000	99.777473
3079.000000	99.778603
3078.000000	99.779428
3077.000000	99.780168
3076.000000	99.781229
3075.000000	99.782775
3074.000000	99.784480
3073.000000	99.785818
3072.000000	99.786610
3071.000000	99.787182
3070.000000	99.788038
3069.000000	99.789424
3068.000000	99.791235
3067.000000	99.793197
3066.000000	99.795074
3065.000000	99.796720
3064.000000	99.798053
3063.000000	99.799087
3062.000000	99.799935
3061.000000	99.800708
3060.000000	99.801386
3059.000000	99.801895
3058.000000	99.802347
3057.000000	99.803064
3056.000000	99.804241
3055.000000	99.805645
3054.000000	99.806803
3053.000000	99.807500
3052.000000	99.807933
3051.000000	99.808393
3050.000000	99.808909
3049.000000	99.809379
3048.000000	99.809954
3047.000000	99.810974
3046.000000	99.812520
3045.000000	99.814185
3044.000000	99.815416
3043.000000	99.815994
3042.000000	99.816074
3041.000000	99.815947
3040.000000	99.815911
3039.000000	99.816319
3038.000000	99.817475
3037.000000	99.819286
3036.000000	99.821067
3035.000000	99.821977
3034.000000	99.821749
3033.000000	99.821046
3032.000000	99.821054
3031.000000	99.822596
3030.000000	99.825531
3029.000000	99.828900
3028.000000	99.831774
3027.000000	99.833826
3026.000000	99.835006
3025.000000	99.835056
3024.000000	99.833931
3023.000000	99.832677
3022.000000	99.833024
3021.000000	99.835630
3020.000000	99.839209
3019.000000	99.841908
3018.000000	99.843300
3017.000000	99.844312
3016.000000	99.845538
3015.000000	99.846633
3014.000000	99.847315
3013.000000	99.847870
3012.000000	99.848409
3011.000000	99.848762
3010.000000	99.849737
3009.000000	99.853272
3008.000000	99.860121
3007.000000	99.867893
3006.000000	99.872782
3005.000000	99.873510
3004.000000	99.872493
3003.000000	99.872710
3002.000000	99.874348
3001.000000	99.875315
3000.000000	99.874427
2999.000000	99.872955
2998.000000	99.873007
2997.000000	99.875363
2996.000000	99.879349
2995.000000	99.884259
2994.000000	99.890243
2993.000000	99.897872
2992.000000	99.907359
2991.000000	99.918226
2990.000000	99.929313
2989.000000	99.939032
2988.000000	99.946029
2987.000000	99.950109
2986.000000	99.952596
2985.000000	99.955676
2984.000000	99.961114
2983.000000	99.969158
2982.000000	99.978270
2981.000000	99.986075
2980.000000	99.991199
2979.000000	99.994438
2978.000000	99.997811
2977.000000	100.002207
2976.000000	100.006356
2975.000000	100.008460
2974.000000	100.008239
2973.000000	100.006897
2972.000000	100.005691
2971.000000	100.005462
2970.000000	100.007128
2969.000000	100.011125
2968.000000	100.015816
2967.000000	100.017673
2966.000000	100.014157
2965.000000	100.006167
2964.000000	99.997164
2963.000000	99.990303
2962.000000	99.986980
2961.000000	99.987423
2960.000000	99.991020
2959.000000	99.995630
2958.000000	99.998027
2957.000000	99.996489
2956.000000	99.992817
2955.000000	99.990805
2954.000000	99.992273
2953.000000	99.995105
2952.000000	99.995539
2951.000000	99.992209
2950.000000	99.987444
2949.000000	99.984612
2948.000000	99.985001
2947.000000	99.987764
2946.000000	99.992238
2945.000000	99.998974
2944.000000	100.008076
2943.000000	100.017596
2942.000000	100.024856
2941.000000	100.029434
2940.000000	100.033811
2939.000000	100.040607
2938.000000	100.049685
2937.000000	100.058468
2936.000000	100.064802
2935.000000	100.068853
2934.000000	100.072196
2933.000000	100.075863
2932.000000	100.080004
2931.000000	100.085266
2930.000000	100.093396
2929.000000	100.105565
2928.000000	100.120241
2927.000000	100.133549
2926.000000	100.141984
2925.000000	100.144324
2924.000000	100.141148
2923.000000	100.133897
2922.000000	100.125110
2921.000000	100.118227
2920.000000	100.115336
2919.000000	100.114879
2918.000000	100.112965
2917.000000	100.107516
2916.000000	100.100217
2915.000000	100.093950
2914.000000	100.089237
2913.000000	100.084307
2912.000000	100.078117
2911.000000	100.071973
2910.000000	100.067830
2909.000000	100.065789
2908.000000	100.063820
2907.000000	100.059628
2906.000000	100.052623
2905.000000	100.044607
2904.000000	100.038785
2903.000000	100.037336
2902.000000	100.039131
2901.000000	100.040139
2900.000000	100.037201
2899.000000	100.031589
2898.000000	100.027828
2897.000000	100.028698
2896.000000	100.032426
2895.000000	100.035296
2894.000000	100.036042
2893.000000	100.036472
2892.000000	100.038238
2891.000000	100.040537
2890.000000	100.041186
2889.000000	100.038889
2888.000000	100.034025
2887.000000	100.028037
2886.000000	100.022420
2885.000000	100.017676
2884.000000	100.013102
2883.000000	100.008356
2882.000000	100.005202
2881.000000	100.006272
2880.000000	100.011468
2879.000000	100.016759
2878.000000	100.018047
2877.000000	100.015875
2876.000000	100.014599
2875.000000	100.017066
2874.000000	100.021636
2873.000000	100.024675
2872.000000	100.024608
2871.000000	100.022671
2870.000000	100.020808
2869.000000	100.020103
2868.000000	100.020800
2867.000000	100.022573
2866.000000	100.024642
2865.000000	100.026339
2864.000000	100.027802
2863.000000	100.029730
2862.000000	100.032511
2861.000000	100.036031
2860.000000	100.040325
2859.000000	100.045810
2858.000000	100.052453
2857.000000	100.058964
2856.000000	100.063318
2855.000000	100.064271
2854.000000	100.062365
2853.000000	100.059374
2852.000000	100.056619
2851.000000	100.053865
2850.000000	100.049849
2849.000000	100.043688
2848.000000	100.035874
2847.000000	100.028198
2846.000000	100.022673
2845.000000	100.019967
2844.000000	100.018523
2843.000000	100.015593
2842.000000	100.009626
2841.000000	100.001598
2840.000000	99.993876
2839.000000	99.988124
2838.000000	99.984558
2837.000000	99.982584
2836.000000	99.981391
2835.000000	99.980184
2834.000000	99.978614
2833.000000	99.977085
2832.000000	99.976040
2831.000000	99.975112
2830.000000	99.973637
2829.000000	99.971656
2828.000000	99.969587
2827.000000	99.967262
2826.000000	99.964437
2825.000000	99.962250
2824.000000	99.962810
2823.000000	99.966806
2822.000000	99.972355
2821.000000	99.976842
2820.000000	99.979307
2819.000000	99.980372
2818.000000	99.980641
2817.000000	99.980098
2816.000000	99.978756
2815.000000	99.977109
2814.000000	99.975887
2813.000000	99.975669
2812.000000	99.976568
2811.000000	99.978046
2810.000000	99.979182
2809.000000	99.979390
2808.000000	99.978798
2807.000000	99.977854
2806.000000	99.976907
2805.000000	99.976283
2804.000000	99.976399
2803.000000	99.977411
2802.000000	99.978852
2801.000000	99.979916
2800.000000	99.980162
2799.000000	99.979849
2798.000000	99.979548
2797.000000	99.979482
2796.000000	99.979345
2795.000000	99.978852
2794.000000	99.978379
2793.000000	99.978738
2792.000000	99.980206
2791.000000	99.982148
2790.000000	99.983708
2789.000000	99.984671
2788.000000	99.985374
2787.000000	99.986062
2786.000000	99.986720
2785.000000	99.987363
2784.000000	99.988113
2783.000000	99.988996
2782.000000	99.989903
2781.000000	99.990717
2780.000000	99.991416
2779.000000	99.992044
2778.000000	99.992661
2777.000000	99.993302
2776.000000	99.993964
2775.000000	99.994629
2774.000000	99.995289
2773.000000	99.995951
2772.000000	99.996643
2771.000000	99.997380
2770.000000	99.998148
2769.000000	99.998921
2768.000000	99.999673
2767.000000	100.000400
2766.000000	100.001109
2765.000000	100.001814
2764.000000	100.002523
2763.000000	100.003231
2762.000000	100.003924
2761.000000	100.004590
2760.000000	100.005226
2759.000000	100.005839
2758.000000	100.006439
2757.000000	100.007031
2756.000000	100.007612
2755.000000	100.008175
2754.000000	100.008708
2753.000000	100.009207
2752.000000	100.009668
2751.000000	100.010094
2750.000000	100.010504
2749.000000	100.010913
2748.000000	100.011327
2747.000000	100.011742
2746.000000	100.012149
2745.000000	100.012521
2744.000000	100.012804
2743.000000	100.012981
2742.000000	100.013118
2741.000000	100.013338
2740.000000	100.013737
2739.000000	100.014320
2738.000000	100.014986
2737.000000	100.015559
2736.000000	100.015903
2735.000000	100.016063
2734.000000	100.016255
2733.000000	100.016642
2732.000000	100.017121
2731.000000	100.017412
2730.000000	100.017374
2729.000000	100.017192
2728.000000	100.017246
2727.000000	100.017797
2726.000000	100.018788
2725.000000	100.019831
2724.000000	100.020424
2723.000000	100.020303
2722.000000	100.019600
2721.000000	100.018720
2720.000000	100.018042
2719.000000	100.017703
2718.000000	100.017671
2717.000000	100.017860
2716.000000	100.018136
2715.000000	100.018319
2714.000000	100.018247
2713.000000	100.017841
2712.000000	100.017156
2711.000000	100.016478
2710.000000	100.016370
2709.000000	100.017398
2708.000000	100.019682
2707.000000	100.022657
2706.000000	100.025309
2705.000000	100.026802
2704.000000	100.026848
2703.000000	100.025741
2702.000000	100.024229
2701.000000	100.023097
2700.000000	100.022642
2699.000000	100.022566
2698.000000	100.022458
2697.000000	100.022344
2696.000000	100.022603
2695.000000	100.023415
2694.000000	100.024558
2693.000000	100.025686
2692.000000	100.026567
2691.000000	100.027020
2690.000000	100.026972
2689.000000	100.026687
2688.000000	100.026636
2687.000000	100.026958
2686.000000	100.027276
2685.000000	100.027204
2684.000000	100.026789
2683.000000	100.026365
2682.000000	100.026267
2681.000000	100.026833
2680.000000	100.028186
2679.000000	100.029703
2678.000000	100.030206
2677.000000	100.029264
2676.000000	100.028001
2675.000000	100.027929
2674.000000	100.029274
2673.000000	100.030901
2672.000000	100.031689
2671.000000	100.031446
2670.000000	100.030616
2669.000000	100.029693
2668.000000	100.028927
2667.000000	100.028257
2666.000000	100.027450
2665.000000	100.026514
2664.000000	100.025806
2663.000000	100.025399
2662.000000	100.024589
2661.000000	100.022631
2660.000000	100.019979
2659.000000	100.018197
2658.000000	100.018375
2657.000000	100.020075
2656.000000	100.021858
2655.000000	100.022612
2654.000000	100.022220
2653.000000	100.021307
2652.000000	100.020670
2651.000000	100.020726
2650.000000	100.021265
2649.000000	100.021764
2648.000000	100.022049
2647.000000	100.022487
2646.000000	100.023422
2645.000000	100.024679
2644.000000	100.025837
2643.000000	100.026831
2642.000000	100.028048
2641.000000	100.029756
2640.000000	100.031527
2639.000000	100.032391
2638.000000	100.031736
2637.000000	100.030002
2636.000000	100.028515
2635.000000	100.028403
2634.000000	100.029741
2633.000000	100.031645
2632.000000	100.032936
2631.000000	100.032961
2630.000000	100.031862
2629.000000	100.030361
2628.000000	100.029269
2627.000000	100.028900
2626.000000	100.028937
2625.000000	100.028888
2624.000000	100.028628
2623.000000	100.028416
2622.000000	100.028484
2621.000000	100.028794
2620.000000	100.029161
2619.000000	100.029430
2618.000000	100.029502
2617.000000	100.029368
2616.000000	100.029164
2615.000000	100.029059
2614.000000	100.029048
2613.000000	100.028989
2612.000000	100.028906
2611.000000	100.029086
2610.000000	100.029739
2609.000000	100.030665
2608.000000	100.031324
2607.000000	100.031337
2606.000000	100.030784
2605.000000	100.030106
2604.000000	100.029719
2603.000000	100.029672
2602.000000	100.029680
2601.000000	100.029439
2600.000000	100.028943
2599.000000	100.028481
2598.000000	100.028279
2597.000000	100.028225
2596.000000	100.028021
2595.000000	100.027526
2594.000000	100.026882
2593.000000	100.026283
2592.000000	100.025752
2591.000000	100.025228
2590.000000	100.024810
2589.000000	100.024806
2588.000000	100.025403
2587.000000	100.026330
2586.000000	100.026946
2585.000000	100.026791
2584.000000	100.025957
2583.000000	100.025033
2582.000000	100.024534
2581.000000	100.024475
2580.000000	100.024592
2579.000000	100.024784
2578.000000	100.025156
2577.000000	100.025723
2576.000000	100.026316
2575.000000	100.026782
2574.000000	100.027109
2573.000000	100.027334
2572.000000	100.027450
2571.000000	100.027438
2570.000000	100.027305
2569.000000	100.027075
2568.000000	100.026819
2567.000000	100.026688
2566.000000	100.026834
2565.000000	100.027270
2564.000000	100.027872
2563.000000	100.028468
2562.000000	100.028902
2561.000000	100.029035
2560.000000	100.028841
2559.000000	100.028461
2558.000000	100.028111
2557.000000	100.027936
2556.000000	100.027968
2555.000000	100.028193
2554.000000	100.028546
2553.000000	100.028824
2552.000000	100.028744
2551.000000	100.028193
2550.000000	100.027473
2549.000000	100.027187
2548.000000	100.027726
2547.000000	100.028921
2546.000000	100.030064
2545.000000	100.030573
2544.000000	100.030583
2543.000000	100.030711
2542.000000	100.031266
2541.000000	100.031880
2540.000000	100.032095
2539.000000	100.031993
2538.000000	100.032025
2537.000000	100.032370
2536.000000	100.032776
2535.000000	100.032990
2534.000000	100.033073
2533.000000	100.033216
2532.000000	100.033476
2531.000000	100.033797
2530.000000	100.034061
2529.000000	100.034069
2528.000000	100.033710
2527.000000	100.033257
2526.000000	100.033230
2525.000000	100.033822
2524.000000	100.034679
2523.000000	100.035392
2522.000000	100.036013
2521.000000	100.036865
2520.000000	100.038038
2519.000000	100.039274
2518.000000	100.040194
2517.000000	100.040436
2516.000000	100.039840
2515.000000	100.038705
2514.000000	100.037681
2513.000000	100.037142
2512.000000	100.036797
2511.000000	100.036147
2510.000000	100.035214
2509.000000	100.034604
2508.000000	100.034860
2507.000000	100.035999
2506.000000	100.037601
2505.000000	100.039043
2504.000000	100.039772
2503.000000	100.039646
2502.000000	100.039073
2501.000000	100.038732
2500.000000	100.038961
2499.000000	100.039551
2498.000000	100.040143
2497.000000	100.040650
2496.000000	100.041207
2495.000000	100.041885
2494.000000	100.042646
2493.000000	100.043461
2492.000000	100.044306
2491.000000	100.045054
2490.000000	100.045549
2489.000000	100.045800
2488.000000	100.045988
2487.000000	100.046296
2486.000000	100.046751
2485.000000	100.047267
2484.000000	100.047772
2483.000000	100.048241
2482.000000	100.048683
2481.000000	100.049112
2480.000000	100.049545
2479.000000	100.050001
2478.000000	100.050486
2477.000000	100.051001
2476.000000	100.051545
2475.000000	100.052113
2474.000000	100.052697
2473.000000	100.053293
2472.000000	100.053899
2471.000000	100.054513
2470.000000	100.055135
2469.000000	100.055762
2468.000000	100.056388
2467.000000	100.057006
2466.000000	100.057607
2465.000000	100.058174
2464.000000	100.058688
2463.000000	100.059181
2462.000000	100.059730
2461.000000	100.060397
2460.000000	100.061148
2459.000000	100.061876
2458.000000	100.062499
2457.000000	100.062979
2456.000000	100.063322
2455.000000	100.063592
2454.000000	100.063920
2453.000000	100.064463
2452.000000	100.065315
2451.000000	100.066422
2450.000000	100.067507
2449.000000	100.068148
2448.000000	100.068028
2447.000000	100.067231
2446.000000	100.066267
2445.000000	100.065612
2444.000000	100.065363
2443.000000	100.065446
2442.000000	100.065941
2441.000000	100.067038
2440.000000	100.068750
2439.000000	100.070851
2438.000000	100.073038
2437.000000	100.074989
2436.000000	100.076399
2435.000000	100.077195
2434.000000	100.077632
2433.000000	100.077952
2432.000000	100.077950
2431.000000	100.077233
2430.000000	100.075907
2429.000000	100.074647
2428.000000	100.074016
2427.000000	100.073974
2426.000000	100.074168
2425.000000	100.074470
2424.000000	100.074996
2423.000000	100.075685
2422.000000	100.076189
2421.000000	100.076259
2420.000000	100.076045
2419.000000	100.075804
2418.000000	100.075457
2417.000000	100.074696
2416.000000	100.073546
2415.000000	100.072539
2414.000000	100.072168
2413.000000	100.072357
2412.000000	100.072676
2411.000000	100.072913
2410.000000	100.073208
2409.000000	100.073749
2408.000000	100.074664
2407.000000	100.076121
2406.000000	100.078127
2405.000000	100.080126
2404.000000	100.081170
2403.000000	100.080825
2402.000000	100.079680
2401.000000	100.078779
2400.000000	100.078690
2399.000000	100.079261
2398.000000	100.080061
2397.000000	100.080715
2396.000000	100.080927
2395.000000	100.080498
2394.000000	100.079497
2393.000000	100.078276
2392.000000	100.077214
2391.000000	100.076484
2390.000000	100.076082
2389.000000	100.075913
2388.000000	100.075842
2387.000000	100.075765
2386.000000	100.075707
2385.000000	100.075790
2384.000000	100.076009
2383.000000	100.076137
2382.000000	100.075936
2381.000000	100.075444
2380.000000	100.074978
2379.000000	100.074828
2378.000000	100.074994
2377.000000	100.075245
2376.000000	100.075330
2375.000000	100.075195
2374.000000	100.074926
2373.000000	100.074622
2372.000000	100.074318
2371.000000	100.074020
2370.000000	100.073718
2369.000000	100.073395
2368.000000	100.073047
2367.000000	100.072718
2366.000000	100.072484
2365.000000	100.072385
2364.000000	100.072383
2363.000000	100.072396
2362.000000	100.072349
2361.000000	100.072231
2360.000000	100.072074
2359.000000	100.071923
2358.000000	100.071815
2357.000000	100.071747
2356.000000	100.071704
2355.000000	100.071671
2354.000000	100.071644
2353.000000	100.071615
2352.000000	100.071576
2351.000000	100.071521
2350.000000	100.071452
2349.000000	100.071379
2348.000000	100.071314
2347.000000	100.071263
2346.000000	100.071223
2345.000000	100.071183
2344.000000	100.071135
2343.000000	100.071084
2342.000000	100.071061
2341.000000	100.071086
2340.000000	100.071140
2339.000000	100.071194
2338.000000	100.071247
2337.000000	100.071308
2336.000000	100.071349
2335.000000	100.071354
2334.000000	100.071363
2333.000000	100.071432
2332.000000	100.071524
2331.000000	100.071574
2330.000000	100.071533
2329.000000	100.071480
2328.000000	100.071480
2327.000000	100.071559
2326.000000	100.071708
2325.000000	100.071952
2324.000000	100.072324
2323.000000	100.072755
2322.000000	100.073076
2321.000000	100.073123
2320.000000	100.072890
2319.000000	100.072605
2318.000000	100.072487
2317.000000	100.072564
2316.000000	100.072573
2315.000000	100.072424
2314.000000	100.072194
2313.000000	100.072065
2312.000000	100.071909
2311.000000	100.071627
2310.000000	100.071305
2309.000000	100.071295
2308.000000	100.071708
2307.000000	100.072482
2306.000000	100.073464
2305.000000	100.074496
2304.000000	100.075295
2303.000000	100.075688
2302.000000	100.075673
2301.000000	100.075410
2300.000000	100.074958
2299.000000	100.074418
2298.000000	100.074025
2297.000000	100.074010
2296.000000	100.074313
2295.000000	100.074652
2294.000000	100.074780
2293.000000	100.074715
2292.000000	100.074614
2291.000000	100.074556
2290.000000	100.074483
2289.000000	100.074321
2288.000000	100.074066
2287.000000	100.073773
2286.000000	100.073520
2285.000000	100.073348
2284.000000	100.073221
2283.000000	100.073042
2282.000000	100.072750
2281.000000	100.072393
2280.000000	100.072078
2279.000000	100.071861
2278.000000	100.071697
2277.000000	100.071493
2276.000000	100.071189
2275.000000	100.070794
2274.000000	100.070365
2273.000000	100.069958
2272.000000	100.069575
2271.000000	100.069163
2270.000000	100.068673
2269.000000	100.068115
2268.000000	100.067557
2267.000000	100.067067
2266.000000	100.066669
2265.000000	100.066335
2264.000000	100.065980
2263.000000	100.065519
2262.000000	100.064927
2261.000000	100.064294
2260.000000	100.063753
2259.000000	100.063338
2258.000000	100.062927
2257.000000	100.062358
2256.000000	100.061608
2255.000000	100.060828
2254.000000	100.060185
2253.000000	100.059741
2252.000000	100.059467
2251.000000	100.059301
2250.000000	100.059172
2249.000000	100.059074
2248.000000	100.059079
2247.000000	100.059216
2246.000000	100.059342
2245.000000	100.059236
2244.000000	100.058820
2243.000000	100.058229
2242.000000	100.057683
2241.000000	100.057374
2240.000000	100.057442
2239.000000	100.057878
2238.000000	100.058393
2237.000000	100.058549
2236.000000	100.058144
2235.000000	100.057408
2234.000000	100.056773
2233.000000	100.056526
2232.000000	100.056728
2231.000000	100.057356
2230.000000	100.058355
2229.000000	100.059561
2228.000000	100.060708
2227.000000	100.061544
2226.000000	100.061968
2225.000000	100.062102
2224.000000	100.062192
2223.000000	100.062352
2222.000000	100.062404
2221.000000	100.062135
2220.000000	100.061725
2219.000000	100.061711
2218.000000	100.062419
2217.000000	100.063613
2216.000000	100.064727
2215.000000	100.065475
2214.000000	100.066058
2213.000000	100.066837
2212.000000	100.067888
2211.000000	100.068927
2210.000000	100.069621
2209.000000	100.069969
2208.000000	100.070329
2207.000000	100.071010
2206.000000	100.071842
2205.000000	100.072302
2204.000000	100.072100
2203.000000	100.071493
2202.000000	100.071032
2201.000000	100.071046
2200.000000	100.071464
2199.000000	100.072036
2198.000000	100.072574
2197.000000	100.073047
2196.000000	100.073505
2195.000000	100.073968
2194.000000	100.074368
2193.000000	100.074636
2192.000000	100.074844
2191.000000	100.075188
2190.000000	100.075773
2189.000000	100.076448
2188.000000	100.076905
2187.000000	100.076959
2186.000000	100.076726
2185.000000	100.076556
2184.000000	100.076755
2183.000000	100.077386
2182.000000	100.078260
2181.000000	100.079065
2180.000000	100.079555
2179.000000	100.079663
2178.000000	100.079485
2177.000000	100.079246
2176.000000	100.079162
2175.000000	100.079269
2174.000000	100.079390
2173.000000	100.079316
2172.000000	100.079057
2171.000000	100.078845
2170.000000	100.078874
2169.000000	100.079111
2168.000000	100.079405
2167.000000	100.079724
2166.000000	100.080192
2165.000000	100.080921
2164.000000	100.081843
2163.000000	100.082687
2162.000000	100.083138
2161.000000	100.083082
2160.000000	100.082733
2159.000000	100.082496
2158.000000	100.082593
2157.000000	100.082896
2156.000000	100.083146
2155.000000	100.083261
2154.000000	100.083402
2153.000000	100.083774
2152.000000	100.084454
2151.000000	100.085366
2150.000000	100.086327
2149.000000	100.087158
2148.000000	100.087826
2147.000000	100.088474
2146.000000	100.089227
2145.000000	100.089987
2144.000000	100.090510
2143.000000	100.090728
2142.000000	100.090876
2141.000000	100.091239
2140.000000	100.091792
2139.000000	100.092249
2138.000000	100.092432
2137.000000	100.092473
2136.000000	100.092676
2135.000000	100.093188
2134.000000	100.093927
2133.000000	100.094713
2132.000000	100.095435
2131.000000	100.096095
2130.000000	100.096713
2129.000000	100.097301
2128.000000	100.097894
2127.000000	100.098532
2126.000000	100.099205
2125.000000	100.099854
2124.000000	100.100446
2123.000000	100.101015
2122.000000	100.101630
2121.000000	100.102318
2120.000000	100.103052
2119.000000	100.103784
2118.000000	100.104485
2117.000000	100.105153
2116.000000	100.105809
2115.000000	100.106475
2114.000000	100.107159
2113.000000	100.107850
2112.000000	100.108534
2111.000000	100.109204
2110.000000	100.109859
2109.000000	100.110501
2108.000000	100.111133
2107.000000	100.111759
2106.000000	100.112382
2105.000000	100.113002
2104.000000	100.113623
2103.000000	100.114247
2102.000000	100.114876
2101.000000	100.115511
2100.000000	100.116150
2099.000000	100.116784
2098.000000	100.117409
2097.000000	100.118026
2096.000000	100.118637
2095.000000	100.119242
2094.000000	100.119835
2093.000000	100.120408
2092.000000	100.120958
2091.000000	100.121485
2090.000000	100.121994
2089.000000	100.122487
2088.000000	100.122970
2087.000000	100.123446
2086.000000	100.123918
2085.000000	100.124402
2084.000000	100.124900
2083.000000	100.125374
2082.000000	100.125770
2081.000000	100.126064
2080.000000	100.126286
2079.000000	100.126526
2078.000000	100.126890
2077.000000	100.127355
2076.000000	100.127681
2075.000000	100.127654
2074.000000	100.127417
2073.000000	100.127414
2072.000000	100.127884
2071.000000	100.128578
2070.000000	100.129004
2069.000000	100.128922
2068.000000	100.128512
2067.000000	100.128227
2066.000000	100.128446
2065.000000	100.129100
2064.000000	100.129634
2063.000000	100.129605
2062.000000	100.129271
2061.000000	100.129274
2060.000000	100.129712
2059.000000	100.129972
2058.000000	100.129628
2057.000000	100.129077
2056.000000	100.128969
2055.000000	100.129317
2054.000000	100.129589
2053.000000	100.129509
2052.000000	100.129363
2051.000000	100.129470
2050.000000	100.129703
2049.000000	100.129769
2048.000000	100.129784
2047.000000	100.130223
2046.000000	100.131144
2045.000000	100.131656
2044.000000	100.130598
2043.000000	100.127718
2042.000000	100.123959
2041.000000	100.120452
2040.000000	100.117509
2039.000000	100.114988
2038.000000	100.113101
2037.000000	100.112157
2036.000000	100.111771
2035.000000	100.111123
2034.000000	100.110085
2033.000000	100.109403
2032.000000	100.109608
2031.000000	100.110381
2030.000000	100.111166
2029.000000	100.111739
2028.000000	100.111894
2027.000000	100.111184
2026.000000	100.109582
2025.000000	100.107988
2024.000000	100.107387
2023.000000	100.107630
2022.000000	100.107506
2021.000000	100.106071
2020.000000	100.103486
2019.000000	100.100662
2018.000000	100.098451
2017.000000	100.097193
2016.000000	100.096725
2015.000000	100.096607
2014.000000	100.096443
2013.000000	100.096050
2012.000000	100.095332
2011.000000	100.094116
2010.000000	100.092331
2009.000000	100.090254
2008.000000	100.088342
2007.000000	100.086739
2006.000000	100.085215
2005.000000	100.083678
2004.000000	100.082507
2003.000000	100.082159
2002.000000	100.082627
2001.000000	100.083394
2000.000000	100.083820
1999.000000	100.083533
1998.000000	100.082558
1997.000000	100.081291
1996.000000	100.080332
1995.000000	100.080075
1994.000000	100.080409
1993.000000	100.080774
1992.000000	100.080597
1991.000000	100.079784
1990.000000	100.078708
1989.000000	100.077808
1988.000000	100.077190
1987.000000	100.076631
1986.000000	100.075906
1985.000000	100.075038
1984.000000	100.074214
1983.000000	100.073527
1982.000000	100.072920
1981.000000	100.072381
1980.000000	100.072043
1979.000000	100.072010
1978.000000	100.072181
1977.000000	100.072307
1976.000000	100.072218
1975.000000	100.071930
1974.000000	100.071547
1973.000000	100.071137
1972.000000	100.070711
1971.000000	100.070292
1970.000000	100.069950
1969.000000	100.069740
1968.000000	100.069642
1967.000000	100.069578
1966.000000	100.069490
1965.000000	100.069384
1964.000000	100.069270
1963.000000	100.069100
1962.000000	100.068811
1961.000000	100.068422
1960.000000	100.068046
1959.000000	100.067762
1958.000000	100.067492
1957.000000	100.067049
1956.000000	100.066367
1955.000000	100.065629
1954.000000	100.065099
1953.000000	100.064881
1952.000000	100.064843
1951.000000	100.064688
1950.000000	100.064179
1949.000000	100.063304
1948.000000	100.062360
1947.000000	100.061752
1946.000000	100.061590
1945.000000	100.061482
1944.000000	100.060865
1943.000000	100.059611
1942.000000	100.058231
1941.000000	100.057320
1940.000000	100.056875
1939.000000	100.056446
1938.000000	100.055768
1937.000000	100.054984
1936.000000	100.054257
1935.000000	100.053412
1934.000000	100.052190
1933.000000	100.050709
1932.000000	100.049370
1931.000000	100.048307
1930.000000	100.047289
1929.000000	100.046235
1928.000000	100.045428
1927.000000	100.044950
1926.000000	100.044224
1925.000000	100.042521
1924.000000	100.039850
1923.000000	100.037032
1922.000000	100.034860
1921.000000	100.033438
1920.000000	100.032466
1919.000000	100.031645
1918.000000	100.030528
1917.000000	100.028504
1916.000000	100.025384
1915.000000	100.021641
1914.000000	100.017947
1913.000000	100.014731
1912.000000	100.012157
1911.000000	100.010267
1910.000000	100.008870
1909.000000	100.007501
1908.000000	100.005853
1907.000000	100.004117
1906.000000	100.002545
1905.000000	100.000815
1904.000000	99.998306
1903.000000	99.994969
1902.000000	99.991589
1901.000000	99.989122
1900.000000	99.987878
1899.000000	99.987340
1898.000000	99.986462
1897.000000	99.984257
1896.000000	99.980700
1895.000000	99.977158
1894.000000	99.975385
1893.000000	99.975806
1892.000000	99.977072
1891.000000	99.977206
1890.000000	99.975050
1889.000000	99.971020
1888.000000	99.966758
1887.000000	99.963722
1886.000000	99.962211
1885.000000	99.961475
1884.000000	99.960510
1883.000000	99.959005
1882.000000	99.957331
1881.000000	99.955729
1880.000000	99.954088
1879.000000	99.952686
1878.000000	99.952494
1877.000000	99.954136
1876.000000	99.956770
1875.000000	99.958423
1874.000000	99.957482
1873.000000	99.953919
1872.000000	99.949345
1871.000000	99.946023
1870.000000	99.945513
1869.000000	99.947652
1868.000000	99.950843
1867.000000	99.953555
1866.000000	99.954920
1865.000000	99.954506
1864.000000	99.952864
1863.000000	99.951976
1862.000000	99.953899
1861.000000	99.958524
1860.000000	99.963423
1859.000000	99.966638
1858.000000	99.968769
1857.000000	99.971543
1856.000000	99.975308
1855.000000	99.978988
1854.000000	99.981891
1853.000000	99.984412
1852.000000	99.987003
1851.000000	99.989332
1850.000000	99.990743
1849.000000	99.990876
1848.000000	99.990016
1847.000000	99.989284
1846.000000	99.990411
1845.000000	99.994494
1844.000000	100.000232
1843.000000	100.004575
1842.000000	100.005940
1841.000000	100.005009
1840.000000	100.003093
1839.000000	100.001097
1838.000000	99.999724
1837.000000	99.999702
1836.000000	100.001277
1835.000000	100.003639
1834.000000	100.005502
1833.000000	100.006378
1832.000000	100.006960
1831.000000	100.008190
1830.000000	100.009946
1829.000000	100.011006
1828.000000	100.010594
1827.000000	100.009172
1826.000000	100.007916
1825.000000	100.007571
1824.000000	100.007726
1823.000000	100.007522
1822.000000	100.006831
1821.000000	100.006405
1820.000000	100.006959
1819.000000	100.008340
1818.000000	100.009595
1817.000000	100.009820
1816.000000	100.009002
1815.000000	100.007990
1814.000000	100.007665
1813.000000	100.008191
1812.000000	100.009017
1811.000000	100.009675
1810.000000	100.010373
1809.000000	100.011642
1808.000000	100.013596
1807.000000	100.015700
1806.000000	100.017008
1805.000000	100.016566
1804.000000	100.014109
1803.000000	100.010644
1802.000000	100.008054
1801.000000	100.007410
1800.000000	100.007762
1799.000000	100.007384
1798.000000	100.005862
1797.000000	100.004378
1796.000000	100.004209
1795.000000	100.005659
1794.000000	100.008220
1793.000000	100.011026
1792.000000	100.013321
1791.000000	100.015146
1790.000000	100.016888
1789.000000	100.018267
1788.000000	100.018727
1787.000000	100.018374
1786.000000	100.018025
1785.000000	100.018124
1784.000000	100.018011
1783.000000	100.017171
1782.000000	100.016902
1781.000000	100.019444
1780.000000	100.025105
1779.000000	100.031701
1778.000000	100.037150
1777.000000	100.041398
1776.000000	100.045214
1775.000000	100.048654
1774.000000	100.051388
1773.000000	100.053400
1772.000000	100.054861
1771.000000	100.056173
1770.000000	100.058119
1769.000000	100.061411
1768.000000	100.065839
1767.000000	100.069521
1766.000000	100.070760
1765.000000	100.070502
1764.000000	100.071726
1763.000000	100.076547
1762.000000	100.083601
1761.000000	100.089244
1760.000000	100.091906
1759.000000	100.093294
1758.000000	100.095874
1757.000000	100.100365
1756.000000	100.104926
1755.000000	100.107357
1754.000000	100.107609
1753.000000	100.107714
1752.000000	100.109939
1751.000000	100.114523
1750.000000	100.119278
1749.000000	100.122120
1748.000000	100.122854
1747.000000	100.122422
1746.000000	100.122102
1745.000000	100.123043
1744.000000	100.125628
1743.000000	100.129028
1742.000000	100.131832
1741.000000	100.133555
1740.000000	100.134516
1739.000000	100.134383
1738.000000	100.132245
1737.000000	100.128252
1736.000000	100.123953
1735.000000	100.120808
1734.000000	100.117911
1733.000000	100.113626
1732.000000	100.109024
1731.000000	100.105891
1730.000000	100.104395
1729.000000	100.103057
1728.000000	100.100758
1727.000000	100.098101
1726.000000	100.096212
1725.000000	100.094866
1724.000000	100.092647
1723.000000	100.088865
1722.000000	100.084304
1721.000000	100.080338
1720.000000	100.078131
1719.000000	100.078419
1718.000000	100.080364
1717.000000	100.081038
1716.000000	100.078790
1715.000000	100.075126
1714.000000	100.072190
1713.000000	100.070604
1712.000000	100.069559
1711.000000	100.068130
1710.000000	100.066067
1709.000000	100.063609
1708.000000	100.060967
1707.000000	100.058063
1706.000000	100.054651
1705.000000	100.050786
1704.000000	100.047046
1703.000000	100.043991
1702.000000	100.041788
1701.000000	100.040062
1700.000000	100.037829
1699.000000	100.034782
1698.000000	100.031478
1697.000000	100.028379
1696.000000	100.025583
1695.000000	100.022978
1694.000000	100.020416
1693.000000	100.017828
1692.000000	100.015240
1691.000000	100.012676
1690.000000	100.010088
1689.000000	100.007392
1688.000000	100.004541
1687.000000	100.001577
1686.000000	99.998633
1685.000000	99.995851
1684.000000	99.993199
1683.000000	99.990634
1682.000000	99.988251
1681.000000	99.986011
1680.000000	99.983787
1679.000000	99.981392
1678.000000	99.978835
1677.000000	99.976457
1676.000000	99.974608
1675.000000	99.973024
1674.000000	99.970975
1673.000000	99.968262
1672.000000	99.965321
1671.000000	99.962583
1670.000000	99.959975
1669.000000	99.957223
1668.000000	99.954482
1667.000000	99.952003
1666.000000	99.949640
1665.000000	99.947161
1664.000000	99.944684
1663.000000	99.942739
1662.000000	99.941591
1661.000000	99.940703
1660.000000	99.939286
1659.000000	99.937452
1658.000000	99.936117
1657.000000	99.935738
1656.000000	99.935339
1655.000000	99.933000
1654.000000	99.926435
1653.000000	99.917456
1652.000000	99.913387
1651.000000	99.913991
1650.000000	99.913885
1649.000000	99.911732
1648.000000	99.907099
1647.000000	99.900640
1646.000000	99.894872
1645.000000	99.892047
1644.000000	99.891539
1643.000000	99.892069
1642.000000	99.892900
1641.000000	99.893546
1640.000000	99.893896
1639.000000	99.894163
1638.000000	99.894406
1637.000000	99.894188
1636.000000	99.892886
1635.000000	99.891191
1634.000000	99.890127
1633.000000	99.888404
1632.000000	99.885061
1631.000000	99.880947
1630.000000	99.877897
1629.000000	99.877453
1628.000000	99.879244
1627.000000	99.881194
1626.000000	99.881753
1625.000000	99.881046
1624.000000	99.879678
1623.000000	99.877743
1622.000000	99.875901
1621.000000	99.876045
1620.000000	99.880008
1619.000000	99.888695
1618.000000	99.901017
1617.000000	99.912655
1616.000000	99.919191
1615.000000	99.921276
1614.000000	99.922414
1613.000000	99.925041
1612.000000	99.930090
1611.000000	99.937100
1610.000000	99.944792
1609.000000	99.952249
1608.000000	99.959127
1607.000000	99.964764
1606.000000	99.968291
1605.000000	99.970011
1604.000000	99.971642
1603.000000	99.974944
1602.000000	99.980300
1601.000000	99.986908
1600.000000	99.993820
1599.000000	100.000072
1598.000000	100.004438
1597.000000	100.006122
1596.000000	100.005874
1595.000000	100.005893
1594.000000	100.008153
1593.000000	100.012847
1592.000000	100.018655
1591.000000	100.024107
1590.000000	100.028466
1589.000000	100.031724
1588.000000	100.034151
1587.000000	100.036047
1586.000000	100.037919
1585.000000	100.040631
1584.000000	100.044888
1583.000000	100.050437
1582.000000	100.056042
1581.000000	100.060330
1580.000000	100.062834
1579.000000	100.064107
1578.000000	100.065272
1577.000000	100.067422
1576.000000	100.070855
1575.000000	100.074749
1574.000000	100.078006
1573.000000	100.080459
1572.000000	100.083092
1571.000000	100.086761
1570.000000	100.090591
1569.000000	100.092693
1568.000000	100.093088
1567.000000	100.093571
1566.000000	100.095509
1565.000000	100.098469
1564.000000	100.100588
1563.000000	100.100743
1562.000000	100.100181
1561.000000	100.101587
1560.000000	100.106823
1559.000000	100.111272
1558.000000	100.110868
1557.000000	100.109997
1556.000000	100.110155
1555.000000	100.111044
1554.000000	100.111794
1553.000000	100.111355
1552.000000	100.109617
1551.000000	100.107354
1550.000000	100.105619
1549.000000	100.105148
1548.000000	100.105885
1547.000000	100.106814
1546.000000	100.106519
1545.000000	100.103761
1544.000000	100.098714
1543.000000	100.093830
1542.000000	100.092279
1541.000000	100.095094
1540.000000	100.098548
1539.000000	100.097831
1538.000000	100.093138
1537.000000	100.087033
1536.000000	100.081458
1535.000000	100.077227
1534.000000	100.074539
1533.000000	100.073035
1532.000000	100.071666
1531.000000	100.069269
1530.000000	100.065560
1529.000000	100.061495
1528.000000	100.058330
1527.000000	100.056301
1526.000000	100.054384
1525.000000	100.051591
1524.000000	100.047832
1523.000000	100.043389
1522.000000	100.038403
1521.000000	100.033824
1520.000000	100.031395
1519.000000	100.031517
1518.000000	100.033157
1517.000000	100.034624
1516.000000	100.034343
1515.000000	100.032135
1514.000000	100.028774
1513.000000	100.024940
1512.000000	100.021062
1511.000000	100.017592
1510.000000	100.015230
1509.000000	100.014661
1508.000000	100.015766
1507.000000	100.016246
1506.000000	100.014562
1505.000000	100.012702
1504.000000	100.011894
1503.000000	100.011983
1502.000000	100.012122
1501.000000	100.011087
1500.000000	100.008464
1499.000000	100.005129
1498.000000	100.002504
1497.000000	100.001060
1496.000000	100.000136
1495.000000	99.998952
1494.000000	99.997305
1493.000000	99.995479
1492.000000	99.993965
1491.000000	99.993208
1490.000000	99.993191
1489.000000	99.993461
1488.000000	99.993694
1487.000000	99.993884
1486.000000	99.994043
1485.000000	99.993947
1484.000000	99.993288
1483.000000	99.992212
1482.000000	99.991464
1481.000000	99.991633
1480.000000	99.992454
1479.000000	99.993129
1478.000000	99.993220
1477.000000	99.992851
1476.000000	99.992458
1475.000000	99.992578
1474.000000	99.993662
1473.000000	99.995494
1472.000000	99.997152
1471.000000	99.998231
1470.000000	99.998960
1469.000000	99.999428
1468.000000	99.999328
1467.000000	99.998435
1466.000000	99.997535
1465.000000	99.997997
1464.000000	99.999425
1463.000000	99.999531
1462.000000	99.997241
1461.000000	99.994298
1460.000000	99.993870
1459.000000	99.998173
1458.000000	100.005924
1457.000000	100.011136
1456.000000	100.009718
1455.000000	100.003961
1454.000000	99.997626
1453.000000	99.992852
1452.000000	99.989938
1451.000000	99.987435
1450.000000	99.983394
1449.000000	99.977630
1448.000000	99.972568
1447.000000	99.970595
1446.000000	99.971080
1445.000000	99.971340
1444.000000	99.969441
1443.000000	99.965489
1442.000000	99.961090
1441.000000	99.958178
1440.000000	99.957804
1439.000000	99.959530
1438.000000	99.961582
1437.000000	99.961885
1436.000000	99.960556
1435.000000	99.959977
1434.000000	99.961311
1433.000000	99.963632
1432.000000	99.965045
1431.000000	99.963432
1430.000000	99.958302
1429.000000	99.952265
1428.000000	99.949203
1427.000000	99.950559
1426.000000	99.954603
1425.000000	99.958652
1424.000000	99.961359
1423.000000	99.963560
1422.000000	99.966644
1421.000000	99.970904
1420.000000	99.975347
1419.000000	99.978291
1418.000000	99.979689
1417.000000	99.981425
1416.000000	99.984553
1415.000000	99.988840
1414.000000	99.993691
1413.000000	99.998491
1412.000000	100.002728
1411.000000	100.006120
1410.000000	100.008838
1409.000000	100.011519
1408.000000	100.014845
1407.000000	100.019023
1406.000000	100.023853
1405.000000	100.029073
1404.000000	100.034167
1403.000000	100.038325
1402.000000	100.041155
1401.000000	100.043289
1400.000000	100.045638
1399.000000	100.048099
1398.000000	100.049846
1397.000000	100.051040
1396.000000	100.053547
1395.000000	100.059576
1394.000000	100.069222
1393.000000	100.079892
1392.000000	100.088864
1391.000000	100.095584
1390.000000	100.101285
1389.000000	100.107300
1388.000000	100.113598
1387.000000	100.118887
1386.000000	100.122540
1385.000000	100.125399
1384.000000	100.128370
1383.000000	100.131379
1382.000000	100.133690
1381.000000	100.134713
1380.000000	100.134244
1379.000000	100.132419
1378.000000	100.130065
1377.000000	100.128425
1376.000000	100.127774
1375.000000	100.126515
1374.000000	100.122758
1373.000000	100.117043
1372.000000	100.112032
1371.000000	100.109731
1370.000000	100.110394
1369.000000	100.113230
1368.000000	100.117313
1367.000000	100.121905
1366.000000	100.126210
1365.000000	100.129355
1364.000000	100.130729
1363.000000	100.130417
1362.000000	100.129329
1361.000000	100.128529
1360.000000	100.128554
1359.000000	100.129551
1358.000000	100.131216
1357.000000	100.132396
1356.000000	100.131650
1355.000000	100.128896
1354.000000	100.126162
1353.000000	100.125893
1352.000000	100.128493
1351.000000	100.131899
1350.000000	100.133473
1349.000000	100.132155
1348.000000	100.128962
1347.000000	100.126039
1346.000000	100.125213
1345.000000	100.126828
1344.000000	100.129454
1343.000000	100.131044
1342.000000	100.130880
1341.000000	100.130237
1340.000000	100.130779
1339.000000	100.132338
1338.000000	100.133135
1337.000000	100.132216
1336.000000	100.130425
1335.000000	100.128931
1334.000000	100.127927
1333.000000	100.127271
1332.000000	100.127537
1331.000000	100.129431
1330.000000	100.132281
1329.000000	100.134109
1328.000000	100.133541
1327.000000	100.131221
1326.000000	100.129217
1325.000000	100.129291
1324.000000	100.131681
1323.000000	100.134970
1322.000000	100.136798
1321.000000	100.135190
1320.000000	100.130014
1319.000000	100.123634
1318.000000	100.119655
1317.000000	100.120177
1316.000000	100.124148
1315.000000	100.128364
1314.000000	100.130225
1313.000000	100.129842
1312.000000	100.129522
1311.000000	100.130964
1310.000000	100.133256
1309.000000	100.134104
1308.000000	100.132775
1307.000000	100.131152
1306.000000	100.131512
1305.000000	100.133652
1304.000000	100.135091
1303.000000	100.134164
1302.000000	100.132003
1301.000000	100.130912
1300.000000	100.131283
1299.000000	100.131279
1298.000000	100.129571
1297.000000	100.127291
1296.000000	100.126677
1295.000000	100.128431
1294.000000	100.131284
1293.000000	100.133765
1292.000000	100.135194
1291.000000	100.134988
1290.000000	100.132462
1289.000000	100.128083
1288.000000	100.123917
1287.000000	100.121625
1286.000000	100.120369
1285.000000	100.117870
1284.000000	100.113406
1283.000000	100.108643
1282.000000	100.105319
1281.000000	100.103245
1280.000000	100.101452
1279.000000	100.100642
1278.000000	100.103218
1277.000000	100.110400
1276.000000	100.119797
1275.000000	100.126453
1274.000000	100.126677
1273.000000	100.120778
1272.000000	100.112155
1271.000000	100.104331
1270.000000	100.099252
1269.000000	100.097741
1268.000000	100.100083
1267.000000	100.105535
1266.000000	100.112164
1265.000000	100.117843
1264.000000	100.120863
1263.000000	100.119779
1262.000000	100.114365
1261.000000	100.107327
1260.000000	100.103055
1259.000000	100.102975
1258.000000	100.103398
1257.000000	100.099609
1256.000000	100.090728
1255.000000	100.078908
1254.000000	100.065408
1253.000000	100.050380
1252.000000	100.036010
1251.000000	100.026220
1250.000000	100.021823
1249.000000	100.018413
1248.000000	100.010853
1247.000000	99.998542
1246.000000	99.985097
1245.000000	99.974010
1244.000000	99.965754
1243.000000	99.958144
1242.000000	99.948202
1241.000000	99.934090
1240.000000	99.916189
1239.000000	99.896453
1238.000000	99.876729
1237.000000	99.858146
1236.000000	99.841698
1235.000000	99.827809
1234.000000	99.814676
1233.000000	99.798373
1232.000000	99.775749
1231.000000	99.746993
1230.000000	99.715148
1229.000000	99.683557
1228.000000	99.653790
1227.000000	99.624920
1226.000000	99.593815
1225.000000	99.556307
1224.000000	99.508716
1223.000000	99.449250
1222.000000	99.379483
1221.000000	99.304870
1220.000000	99.231892
1219.000000	99.162591
1218.000000	99.092751
1217.000000	99.017318
1216.000000	98.936286
1215.000000	98.852896
1214.000000	98.767714
1213.000000	98.678442
1212.000000	98.585017
1211.000000	98.490601
1210.000000	98.397133
1209.000000	98.304029
1208.000000	98.211739
1207.000000	98.122130
1206.000000	98.034506
1205.000000	97.945920
1204.000000	97.856391
1203.000000	97.769191
1202.000000	97.684858
1201.000000	97.599478
1200.000000	97.510203
1199.000000	97.418122
1198.000000	97.324633
1197.000000	97.229733
1196.000000	97.135058
1195.000000	97.043368
1194.000000	96.953448
1193.000000	96.860795
1192.000000	96.764948
1191.000000	96.670506
1190.000000	96.578764
1189.000000	96.484229
1188.000000	96.382398
1187.000000	96.275528
1186.000000	96.167383
1185.000000	96.057384
1184.000000	95.943789
1183.000000	95.828051
1182.000000	95.711997
1181.000000	95.594371
1180.000000	95.473457
1179.000000	95.349479
1178.000000	95.221833
1177.000000	95.088300
1176.000000	94.949771
1175.000000	94.811197
1174.000000	94.674783
1173.000000	94.536823
1172.000000	94.394279
1171.000000	94.249620
1170.000000	94.106060
1169.000000	93.963417
1168.000000	93.822790
1167.000000	93.691118
1166.000000	93.577883
1165.000000	93.491421
1164.000000	93.440278
1163.000000	93.431593
1162.000000	93.463741
1161.000000	93.523863
1160.000000	93.593926
1159.000000	93.655102
1158.000000	93.687770
1157.000000	93.676723
1156.000000	93.620778
1155.000000	93.533216
1154.000000	93.430009
1153.000000	93.320327
1152.000000	93.208644
1151.000000	93.098521
1150.000000	92.990066
1149.000000	92.879374
1148.000000	92.765014
1147.000000	92.651273
1146.000000	92.542233
1145.000000	92.436932
1144.000000	92.332690
1143.000000	92.228564
1142.000000	92.123668
1141.000000	92.016958
1140.000000	91.910096
1139.000000	91.805415
1138.000000	91.700355
1137.000000	91.589903
1136.000000	91.474858
1135.000000	91.360687
1134.000000	91.247906
1133.000000	91.131976
1132.000000	91.013765
1131.000000	90.900521
1130.000000	90.793543
1129.000000	90.684081
1128.000000	90.565579
1127.000000	90.442257
1126.000000	90.321850
1125.000000	90.206810
1124.000000	90.095547
1123.000000	89.984847
1122.000000	89.868411
1121.000000	89.741266
1120.000000	89.608843
1119.000000	89.483825
1118.000000	89.371205
1117.000000	89.264386
1116.000000	89.157222
1115.000000	89.050197
1114.000000	88.943009
1113.000000	88.832588
1112.000000	88.722209
1111.000000	88.621372
1110.000000	88.532394
1109.000000	88.446929
1108.000000	88.358615
1107.000000	88.269095
1106.000000	88.179074
1105.000000	88.084573
1104.000000	87.985693
1103.000000	87.889043
1102.000000	87.798009
1101.000000	87.709472
1100.000000	87.621636
1099.000000	87.535650
1098.000000	87.449129
1097.000000	87.358569
1096.000000	87.268171
1095.000000	87.185046
1094.000000	87.106637
1093.000000	87.025399
1092.000000	86.944487
1091.000000	86.874233
1090.000000	86.813664
1089.000000	86.751190
1088.000000	86.684087
1087.000000	86.621317
1086.000000	86.566177
1085.000000	86.512592
1084.000000	86.460090
1083.000000	86.415425
1082.000000	86.376635
1081.000000	86.332074
1080.000000	86.278685
1079.000000	86.225768
1078.000000	86.177900
1077.000000	86.129166
1076.000000	86.075917
1075.000000	86.018527
1074.000000	85.948526
1073.000000	85.851594
1072.000000	85.726359
1071.000000	85.583836
1070.000000	85.425780
1069.000000	85.240977
1068.000000	85.026636
1067.000000	84.795543
1066.000000	84.557114
1065.000000	84.309403
1064.000000	84.056550
1063.000000	83.815866
1062.000000	83.598624
1061.000000	83.398934
1060.000000	83.208287
1059.000000	83.025534
1058.000000	82.847186
1057.000000	82.664529
1056.000000	82.476381
1055.000000	82.289160
1054.000000	82.099438
1053.000000	81.893033
1052.000000	81.667073
1051.000000	81.435451
1050.000000	81.206201
1049.000000	80.973169
1048.000000	80.735522
1047.000000	80.502550
1046.000000	80.273700
1045.000000	80.036233
1044.000000	79.787183
1043.000000	79.537107
1042.000000	79.288767
1041.000000	79.033685
1040.000000	78.775124
1039.000000	78.532641
1038.000000	78.316418
1037.000000	78.117159
1036.000000	77.927260
1035.000000	77.751263
1034.000000	77.589322
1033.000000	77.432473
1032.000000	77.282040
1031.000000	77.153165
1030.000000	77.051419
1029.000000	76.964716
1028.000000	76.883669
1027.000000	76.810323
1026.000000	76.742413
1025.000000	76.670792
1024.000000	76.597911
1023.000000	76.537281
1022.000000	76.488966
1021.000000	76.436615
1020.000000	76.373703
1019.000000	76.310871
1018.000000	76.252276
1017.000000	76.187697
1016.000000	76.114456
1015.000000	76.044930
1014.000000	75.985148
1013.000000	75.926864
1012.000000	75.866987
1011.000000	75.813777
1010.000000	75.767732
1009.000000	75.717889
1008.000000	75.664148
1007.000000	75.622773
1006.000000	75.602710
1005.000000	75.595657
1004.000000	75.594697
1003.000000	75.602837
1002.000000	75.617931
1001.000000	75.629781
1000.000000	75.638274
999.000000	75.654867
998.000000	75.680878
997.000000	75.704201
996.000000	75.722695
995.000000	75.750513
994.000000	75.795256
993.000000	75.848561
992.000000	75.904971
991.000000	75.970845
990.000000	76.048427
989.000000	76.129793
988.000000	76.212810
987.000000	76.305931
986.000000	76.412308
985.000000	76.526363
984.000000	76.649945
983.000000	76.794265
982.000000	76.961832
981.000000	77.143451
980.000000	77.335915
979.000000	77.545245
978.000000	77.770134
977.000000	78.000510
976.000000	78.235540
975.000000	78.485507
974.000000	78.752981
973.000000	79.029122
972.000000	79.310428
971.000000	79.601847
970.000000	79.901493
969.000000	80.199650
968.000000	80.494706
967.000000	80.792924
966.000000	81.090948
965.000000	81.376134
964.000000	81.646478
963.000000	81.913238
962.000000	82.181073
961.000000	82.441736
960.000000	82.690332
959.000000	82.932155
958.000000	83.170636
957.000000	83.403277
956.000000	83.631761
955.000000	83.861194
954.000000	84.086863
953.000000	84.296323
952.000000	84.486910
951.000000	84.667341
950.000000	84.840523
949.000000	84.999373
948.000000	85.142041
947.000000	85.276715
946.000000	85.408382
945.000000	85.534154
944.000000	85.654187
943.000000	85.773624
942.000000	85.891154
941.000000	85.999182
940.000000	86.098121
939.000000	86.197704
938.000000	86.302004
937.000000	86.406389
936.000000	86.511398
935.000000	86.625347
934.000000	86.749665
933.000000	86.874923
932.000000	86.995004
931.000000	87.113028
930.000000	87.230604
929.000000	87.343661
928.000000	87.451906
927.000000	87.560515
926.000000	87.669753
925.000000	87.774183
924.000000	87.873702
923.000000	87.973206
922.000000	88.069710
921.000000	88.152794
920.000000	88.220854
919.000000	88.285213
918.000000	88.355422
917.000000	88.431657
916.000000	88.513363
915.000000	88.603163
914.000000	88.699810
913.000000	88.799379
912.000000	88.906032
911.000000	89.030080
910.000000	89.173682
909.000000	89.330742
908.000000	89.502449
907.000000	89.699266
906.000000	89.924234
905.000000	90.166620
904.000000	90.415264
903.000000	90.667365
902.000000	90.922047
901.000000	91.176706
900.000000	91.432165
899.000000	91.690979
898.000000	91.948818
897.000000	92.197360
896.000000	92.436259
895.000000	92.671665
894.000000	92.902268
893.000000	93.118176
892.000000	93.315811
891.000000	93.503631
890.000000	93.690270
889.000000	93.875560
888.000000	94.055702
887.000000	94.229022
886.000000	94.394086
885.000000	94.549398
884.000000	94.696993
883.000000	94.840377
882.000000	94.978399
881.000000	95.107230
880.000000	95.227506
879.000000	95.342773
878.000000	95.453142
877.000000	95.559202
876.000000	95.669920
875.000000	95.795926
874.000000	95.935596
873.000000	96.077954
872.000000	96.218491
871.000000	96.362117
870.000000	96.511782
869.000000	96.664518
868.000000	96.817890
867.000000	96.970264
866.000000	97.115351
865.000000	97.246669
864.000000	97.368010
863.000000	97.490953
862.000000	97.621356
861.000000	97.755461
860.000000	97.888067
859.000000	98.015554
858.000000	98.131847
857.000000	98.231366
856.000000	98.317111
855.000000	98.397771
854.000000	98.476050
853.000000	98.547617
852.000000	98.611639
851.000000	98.673472
850.000000	98.735559
849.000000	98.793497
848.000000	98.842621
847.000000	98.881694
846.000000	98.909796
845.000000	98.926845
844.000000	98.937470
843.000000	98.947014
842.000000	98.953466
841.000000	98.949985
840.000000	98.934053
839.000000	98.906393
838.000000	98.863327
837.000000	98.800645
836.000000	98.724808
835.000000	98.650237
834.000000	98.585101
833.000000	98.530052
832.000000	98.490806
831.000000	98.478025
830.000000	98.490588
829.000000	98.511856
828.000000	98.528908
827.000000	98.544872
826.000000	98.566725
825.000000	98.592502
824.000000	98.617510
823.000000	98.641644
822.000000	98.663355
821.000000	98.677153
820.000000	98.682064
819.000000	98.681566
818.000000	98.671234
817.000000	98.636826
816.000000	98.568391
815.000000	98.466653
814.000000	98.331103
813.000000	98.150918
812.000000	97.912922
811.000000	97.609888
810.000000	97.235648
809.000000	96.781740
808.000000	96.247133
807.000000	95.644313
806.000000	94.989910
805.000000	94.299606
804.000000	93.600549
803.000000	92.936233
802.000000	92.345863
801.000000	91.847412
800.000000	91.449771
799.000000	91.167459
798.000000	91.009776
797.000000	90.965711
796.000000	91.010827
795.000000	91.120956
794.000000	91.272700
793.000000	91.441491
792.000000	91.607657
791.000000	91.757863
790.000000	91.876925
789.000000	91.946918
788.000000	91.958115
787.000000	91.912419
786.000000	91.812918
785.000000	91.659209
784.000000	91.456969
783.000000	91.223233
782.000000	90.978537
781.000000	90.743703
780.000000	90.547595
779.000000	90.424427
778.000000	90.394686
777.000000	90.456563
776.000000	90.598757
775.000000	90.809161
774.000000	91.066992
773.000000	91.340817
772.000000	91.603485
771.000000	91.842708
770.000000	92.054820
769.000000	92.237643
768.000000	92.392826
767.000000	92.525945
766.000000	92.639611
765.000000	92.732998
764.000000	92.810511
763.000000	92.883732
762.000000	92.962768
761.000000	93.051960
760.000000	93.153164
759.000000	93.264057
758.000000	93.374092
757.000000	93.473525
756.000000	93.567029
755.000000	93.667596
754.000000	93.777293
753.000000	93.886688
752.000000	93.993430
751.000000	94.106138
750.000000	94.225937
749.000000	94.338378
748.000000	94.430987
747.000000	94.508824
746.000000	94.587243
745.000000	94.678970
744.000000	94.793178
743.000000	94.935994
742.000000	95.103494
741.000000	95.280814
740.000000	95.453572
739.000000	95.615195
738.000000	95.762811
737.000000	95.895409
736.000000	96.017757
735.000000	96.135934
734.000000	96.246357
733.000000	96.338812
732.000000	96.412525
731.000000	96.478625
730.000000	96.542692
729.000000	96.595548
728.000000	96.627792
727.000000	96.644828
726.000000	96.661754
725.000000	96.691550
724.000000	96.743282
723.000000	96.822152
722.000000	96.923081
721.000000	97.030197
720.000000	97.129253
719.000000	97.216674
718.000000	97.293898
717.000000	97.361257
716.000000	97.422285
715.000000	97.485135
714.000000	97.552519
713.000000	97.616654
712.000000	97.670352
711.000000	97.716312
710.000000	97.758650
709.000000	97.791715
708.000000	97.805464
707.000000	97.798122
706.000000	97.776423
705.000000	97.745254
704.000000	97.701069
703.000000	97.630886
702.000000	97.512970
701.000000	97.322911
700.000000	97.046224
699.000000	96.689065
698.000000	96.282226
697.000000	95.882071
696.000000	95.562175
695.000000	95.384239
694.000000	95.365685
693.000000	95.476757
692.000000	95.668450
691.000000	95.899145
690.000000	96.138674
689.000000	96.363991
688.000000	96.562386
687.000000	96.732025
686.000000	96.871570
685.000000	96.976336
684.000000	97.051144
683.000000	97.117134
682.000000	97.194864
681.000000	97.284097
680.000000	97.367711
679.000000	97.434155
678.000000	97.490783
677.000000	97.555855
676.000000	97.641811
675.000000	97.744633
674.000000	97.844290
673.000000	97.919747
672.000000	97.969691
671.000000	98.015326
670.000000	98.080544
669.000000	98.173151
668.000000	98.274438
667.000000	98.349510
666.000000	98.388725
665.000000	98.413366
664.000000	98.442010
663.000000	98.478527
662.000000	98.515038
661.000000	98.542346
660.000000	98.562700
659.000000	98.583166
658.000000	98.596696
657.000000	98.585194
656.000000	98.548823
655.000000	98.516733
654.000000	98.513339
653.000000	98.526927
652.000000	98.528995
651.000000	98.511361
650.000000	98.488839
649.000000	98.477893
648.000000	98.488856
647.000000	98.526990
646.000000	98.585273
645.000000	98.647207
644.000000	98.709876
643.000000	98.790385
642.000000	98.895586
641.000000	99.005797
640.000000	99.100935
639.000000	99.180537
638.000000	99.248751
637.000000	99.297836
636.000000	99.321751
635.000000	99.334422
634.000000	99.358557
633.000000	99.402814
632.000000	99.461102
631.000000	99.523831
630.000000	99.581294
629.000000	99.629290
628.000000	99.679993
627.000000	99.754978
626.000000	99.855971
625.000000	99.953953
624.000000	100.019838
623.000000	100.055108
622.000000	100.084171
621.000000	100.125945
620.000000	100.180422
619.000000	100.230790
618.000000	100.251408
617.000000	100.229617
616.000000	100.185463
615.000000	100.153285
614.000000	100.136477
613.000000	100.102658
612.000000	100.033754
611.000000	99.956915
610.000000	99.911333
609.000000	99.904492
608.000000	99.919587
607.000000	99.940940
606.000000	99.956225
605.000000	99.964310
604.000000	99.997800
603.000000	100.103188
602.000000	100.267686
601.000000	100.392435
600.000000	100.376136
599.000000	100.212882
598.000000	99.991597
597.000000	99.804063
596.000000	99.683043
595.000000	99.630408
594.000000	99.647036
593.000000	99.720340
592.000000	99.817705
591.000000	99.903908
590.000000	99.956458
589.000000	99.966693
588.000000	99.939687
587.000000	99.896823
586.000000	99.866016
585.000000	99.867066
584.000000	99.914882
583.000000	100.018928
582.000000	100.152255
581.000000	100.243777
580.000000	100.238556
579.000000	100.160419
578.000000	100.089993
577.000000	100.077688
576.000000	100.114068
575.000000	100.178208
574.000000	100.260093
573.000000	100.333685
572.000000	100.354866
571.000000	100.305225
570.000000	100.219005
569.000000	100.148996
568.000000	100.123725
567.000000	100.145364
566.000000	100.192068
565.000000	100.218851
564.000000	100.185586
563.000000	100.089940
562.000000	99.969361
561.000000	99.870888
560.000000	99.824576
559.000000	99.825878
558.000000	99.821170
557.000000	99.755212
556.000000	99.664575
555.000000	99.670025
554.000000	99.828058
553.000000	100.036447
552.000000	100.130810
551.000000	100.065359
550.000000	99.927897
