PE IR       SUBTECH     SPECTRUM    ASCII       PEDS        4.00        
   -1
BH1 8-2 5 20_1.asc
24/05/15
15:15:15.00
24/05/15
15:16:36.00
Administrator
?品 100 用? Administrator 日期 Wednesday, May 15 2024
550.000000
#HDR
-1
-1
#GR
cm-1
%T
1.0
0.0
4000.000000
-1.000000
3451
8
100.456263
81.536873
#DATA
4000.000000	100.079143
3999.000000	100.078828
3998.000000	100.077321
3997.000000	100.074603
3996.000000	100.071698
3995.000000	100.069916
3994.000000	100.069801
3993.000000	100.070868
3992.000000	100.071819
3991.000000	100.071720
3990.000000	100.070726
3989.000000	100.069667
3988.000000	100.069147
3987.000000	100.069056
3986.000000	100.068950
3985.000000	100.068755
3984.000000	100.068880
3983.000000	100.069693
3982.000000	100.071077
3981.000000	100.072404
3980.000000	100.072977
3979.000000	100.072590
3978.000000	100.071615
3977.000000	100.070644
3976.000000	100.069994
3975.000000	100.069510
3974.000000	100.068814
3973.000000	100.067724
3972.000000	100.066533
3971.000000	100.065865
3970.000000	100.066130
3969.000000	100.067107
3968.000000	100.067969
3967.000000	100.067943
3966.000000	100.067004
3965.000000	100.065971
3964.000000	100.065826
3963.000000	100.066910
3962.000000	100.068751
3961.000000	100.070569
3960.000000	100.071877
3959.000000	100.072606
3958.000000	100.072798
3957.000000	100.072386
3956.000000	100.071357
3955.000000	100.070130
3954.000000	100.069451
3953.000000	100.069781
3952.000000	100.070856
3951.000000	100.071841
3950.000000	100.072172
3949.000000	100.072150
3948.000000	100.072536
3947.000000	100.073584
3946.000000	100.074701
3945.000000	100.075145
3944.000000	100.074848
3943.000000	100.074406
3942.000000	100.074116
3941.000000	100.073515
3940.000000	100.072341
3939.000000	100.071471
3938.000000	100.072224
3937.000000	100.074964
3936.000000	100.078537
3935.000000	100.081289
3934.000000	100.082302
3933.000000	100.081484
3932.000000	100.078965
3931.000000	100.075037
3930.000000	100.070754
3929.000000	100.067531
3928.000000	100.065993
3927.000000	100.065645
3926.000000	100.065797
3925.000000	100.066453
3924.000000	100.067940
3923.000000	100.070082
3922.000000	100.072588
3921.000000	100.075540
3920.000000	100.078805
3919.000000	100.081453
3918.000000	100.082257
3917.000000	100.080806
3916.000000	100.077823
3915.000000	100.074605
3914.000000	100.072319
3913.000000	100.071487
3912.000000	100.071724
3911.000000	100.072115
3910.000000	100.072008
3909.000000	100.071586
3908.000000	100.071403
3907.000000	100.071778
3906.000000	100.072625
3905.000000	100.073794
3904.000000	100.075100
3903.000000	100.075989
3902.000000	100.075841
3901.000000	100.074747
3900.000000	100.073568
3899.000000	100.073106
3898.000000	100.073386
3897.000000	100.073927
3896.000000	100.074380
3895.000000	100.074672
3894.000000	100.074788
3893.000000	100.074789
3892.000000	100.074914
3891.000000	100.075355
3890.000000	100.075835
3889.000000	100.075910
3888.000000	100.075505
3887.000000	100.074918
3886.000000	100.074524
3885.000000	100.074371
3884.000000	100.074196
3883.000000	100.073845
3882.000000	100.073466
3881.000000	100.073307
3880.000000	100.073401
3879.000000	100.073558
3878.000000	100.073578
3877.000000	100.073473
3876.000000	100.073353
3875.000000	100.073305
3874.000000	100.073346
3873.000000	100.073406
3872.000000	100.073406
3871.000000	100.073377
3870.000000	100.073422
3869.000000	100.073522
3868.000000	100.073484
3867.000000	100.073235
3866.000000	100.072885
3865.000000	100.072578
3864.000000	100.072307
3863.000000	100.071986
3862.000000	100.071595
3861.000000	100.071187
3860.000000	100.070800
3859.000000	100.070430
3858.000000	100.070068
3857.000000	100.069719
3856.000000	100.069392
3855.000000	100.069096
3854.000000	100.068844
3853.000000	100.068630
3852.000000	100.068436
3851.000000	100.068244
3850.000000	100.068049
3849.000000	100.067859
3848.000000	100.067687
3847.000000	100.067543
3846.000000	100.067431
3845.000000	100.067349
3844.000000	100.067291
3843.000000	100.067253
3842.000000	100.067229
3841.000000	100.067207
3840.000000	100.067176
3839.000000	100.067127
3838.000000	100.067060
3837.000000	100.066984
3836.000000	100.066915
3835.000000	100.066869
3834.000000	100.066853
3833.000000	100.066871
3832.000000	100.066913
3831.000000	100.066962
3830.000000	100.066997
3829.000000	100.067001
3828.000000	100.066970
3827.000000	100.066918
3826.000000	100.066870
3825.000000	100.066850
3824.000000	100.066863
3823.000000	100.066903
3822.000000	100.066971
3821.000000	100.067072
3820.000000	100.067206
3819.000000	100.067354
3818.000000	100.067501
3817.000000	100.067647
3816.000000	100.067800
3815.000000	100.067952
3814.000000	100.068091
3813.000000	100.068209
3812.000000	100.068313
3811.000000	100.068405
3810.000000	100.068484
3809.000000	100.068548
3808.000000	100.068605
3807.000000	100.068662
3806.000000	100.068717
3805.000000	100.068755
3804.000000	100.068758
3803.000000	100.068723
3802.000000	100.068660
3801.000000	100.068584
3800.000000	100.068499
3799.000000	100.068414
3798.000000	100.068353
3797.000000	100.068336
3796.000000	100.068372
3795.000000	100.068449
3794.000000	100.068553
3793.000000	100.068673
3792.000000	100.068804
3791.000000	100.068937
3790.000000	100.069066
3789.000000	100.069191
3788.000000	100.069316
3787.000000	100.069449
3786.000000	100.069597
3785.000000	100.069761
3784.000000	100.069935
3783.000000	100.070120
3782.000000	100.070265
3781.000000	100.070321
3780.000000	100.070366
3779.000000	100.070573
3778.000000	100.070933
3777.000000	100.071205
3776.000000	100.071318
3775.000000	100.071531
3774.000000	100.072029
3773.000000	100.072610
3772.000000	100.072990
3771.000000	100.073329
3770.000000	100.073998
3769.000000	100.074726
3768.000000	100.074598
3767.000000	100.073408
3766.000000	100.072107
3765.000000	100.071582
3764.000000	100.071443
3763.000000	100.070662
3762.000000	100.069237
3761.000000	100.068474
3760.000000	100.069387
3759.000000	100.071571
3758.000000	100.073749
3757.000000	100.075259
3756.000000	100.076323
3755.000000	100.077424
3754.000000	100.078959
3753.000000	100.080757
3752.000000	100.081479
3751.000000	100.079849
3750.000000	100.076600
3749.000000	100.073569
3748.000000	100.071294
3747.000000	100.069062
3746.000000	100.066436
3745.000000	100.064550
3744.000000	100.064588
3743.000000	100.064791
3742.000000	100.063559
3741.000000	100.062772
3740.000000	100.064393
3739.000000	100.067724
3738.000000	100.069672
3737.000000	100.068245
3736.000000	100.064644
3735.000000	100.061707
3734.000000	100.060342
3733.000000	100.059491
3732.000000	100.058350
3731.000000	100.056498
3730.000000	100.053399
3729.000000	100.049188
3728.000000	100.045092
3727.000000	100.042424
3726.000000	100.041120
3725.000000	100.039875
3724.000000	100.038419
3723.000000	100.038019
3722.000000	100.039269
3721.000000	100.040409
3720.000000	100.038976
3719.000000	100.034574
3718.000000	100.028840
3717.000000	100.023531
3716.000000	100.019068
3715.000000	100.015188
3714.000000	100.011709
3713.000000	100.008008
3712.000000	100.003559
3711.000000	99.998826
3710.000000	99.994168
3709.000000	99.989631
3708.000000	99.985434
3707.000000	99.982075
3706.000000	99.979646
3705.000000	99.977475
3704.000000	99.974869
3703.000000	99.971970
3702.000000	99.970198
3701.000000	99.970155
3700.000000	99.969318
3699.000000	99.964323
3698.000000	99.955166
3697.000000	99.945412
3696.000000	99.938740
3695.000000	99.935923
3694.000000	99.935739
3693.000000	99.936601
3692.000000	99.936088
3691.000000	99.931583
3690.000000	99.923184
3689.000000	99.914426
3688.000000	99.906488
3687.000000	99.896112
3686.000000	99.882235
3685.000000	99.868805
3684.000000	99.860159
3683.000000	99.855621
3682.000000	99.850111
3681.000000	99.840675
3680.000000	99.829813
3679.000000	99.820013
3678.000000	99.808949
3677.000000	99.792925
3676.000000	99.776517
3675.000000	99.768740
3674.000000	99.765635
3673.000000	99.756458
3672.000000	99.740338
3671.000000	99.723058
3670.000000	99.710437
3669.000000	99.702774
3668.000000	99.694980
3667.000000	99.684814
3666.000000	99.673661
3665.000000	99.661231
3664.000000	99.645169
3663.000000	99.625092
3662.000000	99.604334
3661.000000	99.587238
3660.000000	99.575111
3659.000000	99.565724
3658.000000	99.556889
3657.000000	99.549471
3656.000000	99.545340
3655.000000	99.541410
3654.000000	99.532846
3653.000000	99.520322
3652.000000	99.508539
3651.000000	99.496979
3650.000000	99.477552
3649.000000	99.445383
3648.000000	99.409317
3647.000000	99.383213
3646.000000	99.370488
3645.000000	99.365001
3644.000000	99.360261
3643.000000	99.354284
3642.000000	99.346618
3641.000000	99.336216
3640.000000	99.322762
3639.000000	99.309365
3638.000000	99.300107
3637.000000	99.294564
3636.000000	99.288351
3635.000000	99.278689
3634.000000	99.267042
3633.000000	99.254722
3632.000000	99.240239
3631.000000	99.222805
3630.000000	99.206996
3629.000000	99.201820
3628.000000	99.206587
3627.000000	99.208641
3626.000000	99.204908
3625.000000	99.204429
3624.000000	99.212638
3623.000000	99.225250
3622.000000	99.234322
3621.000000	99.235942
3620.000000	99.232721
3619.000000	99.230016
3618.000000	99.229676
3617.000000	99.229759
3616.000000	99.230777
3615.000000	99.236809
3614.000000	99.251916
3613.000000	99.275343
3612.000000	99.299611
3611.000000	99.315238
3610.000000	99.318628
3609.000000	99.315088
3608.000000	99.314637
3607.000000	99.322753
3606.000000	99.335746
3605.000000	99.346144
3604.000000	99.349540
3603.000000	99.346982
3602.000000	99.344178
3601.000000	99.347108
3600.000000	99.357182
3599.000000	99.370371
3598.000000	99.381416
3597.000000	99.387269
3596.000000	99.388022
3595.000000	99.386450
3594.000000	99.387387
3593.000000	99.393965
3592.000000	99.404811
3591.000000	99.415221
3590.000000	99.420226
3589.000000	99.417987
3588.000000	99.411704
3587.000000	99.406715
3586.000000	99.404180
3585.000000	99.402028
3584.000000	99.399565
3583.000000	99.397567
3582.000000	99.396318
3581.000000	99.395617
3580.000000	99.395527
3579.000000	99.395659
3578.000000	99.394621
3577.000000	99.390778
3576.000000	99.384101
3575.000000	99.376854
3574.000000	99.372263
3573.000000	99.372417
3572.000000	99.376814
3571.000000	99.382566
3570.000000	99.385831
3569.000000	99.384102
3568.000000	99.378122
3567.000000	99.371648
3566.000000	99.367248
3565.000000	99.364126
3564.000000	99.361231
3563.000000	99.358869
3562.000000	99.357320
3561.000000	99.356105
3560.000000	99.354820
3559.000000	99.354030
3558.000000	99.354327
3557.000000	99.354856
3556.000000	99.353364
3555.000000	99.348405
3554.000000	99.341375
3553.000000	99.336037
3552.000000	99.334864
3551.000000	99.336661
3550.000000	99.338197
3549.000000	99.337635
3548.000000	99.335521
3547.000000	99.333192
3546.000000	99.331329
3545.000000	99.330068
3544.000000	99.329560
3543.000000	99.329855
3542.000000	99.330456
3541.000000	99.330534
3540.000000	99.329556
3539.000000	99.327820
3538.000000	99.326271
3537.000000	99.325772
3536.000000	99.326383
3535.000000	99.327331
3534.000000	99.327892
3533.000000	99.328076
3532.000000	99.328369
3531.000000	99.328880
3530.000000	99.329255
3529.000000	99.329422
3528.000000	99.329963
3527.000000	99.331414
3526.000000	99.333498
3525.000000	99.335297
3524.000000	99.335939
3523.000000	99.335087
3522.000000	99.333082
3521.000000	99.330952
3520.000000	99.330020
3519.000000	99.331181
3518.000000	99.334326
3517.000000	99.338263
3516.000000	99.341362
3515.000000	99.342369
3514.000000	99.340973
3513.000000	99.337907
3512.000000	99.334694
3511.000000	99.332750
3510.000000	99.332491
3509.000000	99.333121
3508.000000	99.333295
3507.000000	99.332328
3506.000000	99.330848
3505.000000	99.330205
3504.000000	99.331154
3503.000000	99.333224
3502.000000	99.335562
3501.000000	99.338251
3500.000000	99.342134
3499.000000	99.347242
3498.000000	99.352100
3497.000000	99.354951
3496.000000	99.355412
3495.000000	99.354428
3494.000000	99.352986
3493.000000	99.351353
3492.000000	99.349433
3491.000000	99.347235
3490.000000	99.344839
3489.000000	99.342279
3488.000000	99.339790
3487.000000	99.337931
3486.000000	99.337239
3485.000000	99.337755
3484.000000	99.339031
3483.000000	99.340436
3482.000000	99.341536
3481.000000	99.342206
3480.000000	99.342454
3479.000000	99.342265
3478.000000	99.341617
3477.000000	99.340595
3476.000000	99.339288
3475.000000	99.337576
3474.000000	99.335297
3473.000000	99.332893
3472.000000	99.331552
3471.000000	99.332065
3470.000000	99.333557
3469.000000	99.334012
3468.000000	99.332336
3467.000000	99.329531
3466.000000	99.327397
3465.000000	99.326491
3464.000000	99.325923
3463.000000	99.324840
3462.000000	99.323332
3461.000000	99.321779
3460.000000	99.320066
3459.000000	99.317936
3458.000000	99.315712
3457.000000	99.314095
3456.000000	99.313232
3455.000000	99.312408
3454.000000	99.310921
3453.000000	99.308895
3452.000000	99.307035
3451.000000	99.305638
3450.000000	99.304181
3449.000000	99.301892
3448.000000	99.298487
3447.000000	99.294310
3446.000000	99.290099
3445.000000	99.286837
3444.000000	99.285472
3443.000000	99.286286
3442.000000	99.288382
3441.000000	99.290124
3440.000000	99.290403
3439.000000	99.289261
3438.000000	99.287364
3437.000000	99.285222
3436.000000	99.282927
3435.000000	99.280448
3434.000000	99.278017
3433.000000	99.276138
3432.000000	99.275270
3431.000000	99.275448
3430.000000	99.276237
3429.000000	99.276998
3428.000000	99.277175
3427.000000	99.276415
3426.000000	99.274662
3425.000000	99.272355
3424.000000	99.270391
3423.000000	99.269607
3422.000000	99.270124
3421.000000	99.271211
3420.000000	99.271836
3419.000000	99.271530
3418.000000	99.270759
3417.000000	99.270477
3416.000000	99.271263
3415.000000	99.272805
3414.000000	99.274124
3413.000000	99.274375
3412.000000	99.273429
3411.000000	99.271751
3410.000000	99.269865
3409.000000	99.268018
3408.000000	99.266305
3407.000000	99.265007
3406.000000	99.264587
3405.000000	99.265239
3404.000000	99.266556
3403.000000	99.267794
3402.000000	99.268503
3401.000000	99.268725
3400.000000	99.268697
3399.000000	99.268592
3398.000000	99.268582
3397.000000	99.268862
3396.000000	99.269424
3395.000000	99.269962
3394.000000	99.270202
3393.000000	99.270197
3392.000000	99.270158
3391.000000	99.270094
3390.000000	99.269872
3389.000000	99.269591
3388.000000	99.269667
3387.000000	99.270418
3386.000000	99.271642
3385.000000	99.272722
3384.000000	99.273211
3383.000000	99.273287
3382.000000	99.273587
3381.000000	99.274584
3380.000000	99.276219
3379.000000	99.278020
3378.000000	99.279509
3377.000000	99.280458
3376.000000	99.280894
3375.000000	99.281084
3374.000000	99.281467
3373.000000	99.282355
3372.000000	99.283601
3371.000000	99.284700
3370.000000	99.285297
3369.000000	99.285567
3368.000000	99.286048
3367.000000	99.287116
3366.000000	99.288707
3365.000000	99.290459
3364.000000	99.292067
3363.000000	99.293496
3362.000000	99.294879
3361.000000	99.296324
3360.000000	99.297817
3359.000000	99.299246
3358.000000	99.300526
3357.000000	99.301703
3356.000000	99.302879
3355.000000	99.304066
3354.000000	99.305196
3353.000000	99.306276
3352.000000	99.307452
3351.000000	99.308874
3350.000000	99.310535
3349.000000	99.312249
3348.000000	99.313797
3347.000000	99.315117
3346.000000	99.316309
3345.000000	99.317512
3344.000000	99.318792
3343.000000	99.320148
3342.000000	99.321575
3341.000000	99.323056
3340.000000	99.324513
3339.000000	99.325838
3338.000000	99.327017
3337.000000	99.328180
3336.000000	99.329493
3335.000000	99.331025
3334.000000	99.332733
3333.000000	99.334513
3332.000000	99.336200
3331.000000	99.337597
3330.000000	99.338624
3329.000000	99.339494
3328.000000	99.340624
3327.000000	99.342300
3326.000000	99.344462
3325.000000	99.346757
3324.000000	99.348717
3323.000000	99.349942
3322.000000	99.350267
3321.000000	99.349988
3320.000000	99.349866
3319.000000	99.350618
3318.000000	99.352436
3317.000000	99.354940
3316.000000	99.357588
3315.000000	99.360071
3314.000000	99.362389
3313.000000	99.364756
3312.000000	99.367369
3311.000000	99.370123
3310.000000	99.372529
3309.000000	99.374061
3308.000000	99.374607
3307.000000	99.374629
3306.000000	99.374843
3305.000000	99.375707
3304.000000	99.377216
3303.000000	99.379055
3302.000000	99.380837
3301.000000	99.382329
3300.000000	99.383587
3299.000000	99.384978
3298.000000	99.386950
3297.000000	99.389598
3296.000000	99.392418
3295.000000	99.394653
3294.000000	99.395958
3293.000000	99.396647
3292.000000	99.397335
3291.000000	99.398395
3290.000000	99.399810
3289.000000	99.401366
3288.000000	99.402835
3287.000000	99.404068
3286.000000	99.405072
3285.000000	99.405964
3284.000000	99.406803
3283.000000	99.407529
3282.000000	99.408138
3281.000000	99.408837
3280.000000	99.409919
3279.000000	99.411495
3278.000000	99.413402
3277.000000	99.415312
3276.000000	99.416913
3275.000000	99.418098
3274.000000	99.419071
3273.000000	99.420224
3272.000000	99.421808
3271.000000	99.423730
3270.000000	99.425652
3269.000000	99.427258
3268.000000	99.428425
3267.000000	99.429208
3266.000000	99.429840
3265.000000	99.430703
3264.000000	99.432062
3263.000000	99.433843
3262.000000	99.435646
3261.000000	99.437125
3260.000000	99.438301
3259.000000	99.439434
3258.000000	99.440679
3257.000000	99.441944
3256.000000	99.443062
3255.000000	99.443986
3254.000000	99.444832
3253.000000	99.445798
3252.000000	99.447079
3251.000000	99.448795
3250.000000	99.450981
3249.000000	99.453552
3248.000000	99.456209
3247.000000	99.458455
3246.000000	99.459904
3245.000000	99.460630
3244.000000	99.461161
3243.000000	99.461984
3242.000000	99.463065
3241.000000	99.463956
3240.000000	99.464323
3239.000000	99.464366
3238.000000	99.464745
3237.000000	99.466057
3236.000000	99.468308
3235.000000	99.470850
3234.000000	99.473017
3233.000000	99.474842
3232.000000	99.476931
3231.000000	99.479639
3230.000000	99.482647
3229.000000	99.485432
3228.000000	99.487847
3227.000000	99.489941
3226.000000	99.491490
3225.000000	99.492199
3224.000000	99.492340
3223.000000	99.492781
3222.000000	99.494254
3221.000000	99.496691
3220.000000	99.499266
3219.000000	99.501089
3218.000000	99.501884
3217.000000	99.502205
3216.000000	99.502975
3215.000000	99.504738
3214.000000	99.507356
3213.000000	99.510391
3212.000000	99.513628
3211.000000	99.516942
3210.000000	99.519820
3209.000000	99.521446
3208.000000	99.521429
3207.000000	99.520269
3206.000000	99.519031
3205.000000	99.518500
3204.000000	99.518781
3203.000000	99.519670
3202.000000	99.521130
3201.000000	99.523301
3200.000000	99.526149
3199.000000	99.529296
3198.000000	99.532332
3197.000000	99.535164
3196.000000	99.537858
3195.000000	99.540318
3194.000000	99.542332
3193.000000	99.543884
3192.000000	99.545203
3191.000000	99.546439
3190.000000	99.547503
3189.000000	99.548306
3188.000000	99.549030
3187.000000	99.550037
3186.000000	99.551526
3185.000000	99.553379
3184.000000	99.555297
3183.000000	99.557026
3182.000000	99.558506
3181.000000	99.559880
3180.000000	99.561408
3179.000000	99.563288
3178.000000	99.565494
3177.000000	99.567775
3176.000000	99.569815
3175.000000	99.571466
3174.000000	99.572847
3173.000000	99.574276
3172.000000	99.576029
3171.000000	99.578130
3170.000000	99.580382
3169.000000	99.582553
3168.000000	99.584554
3167.000000	99.586434
3166.000000	99.588262
3165.000000	99.590057
3164.000000	99.591789
3163.000000	99.593438
3162.000000	99.595052
3161.000000	99.596755
3160.000000	99.598655
3159.000000	99.600747
3158.000000	99.602889
3157.000000	99.604894
3156.000000	99.606681
3155.000000	99.608328
3154.000000	99.610010
3153.000000	99.611843
3152.000000	99.613797
3151.000000	99.615733
3150.000000	99.617529
3149.000000	99.619197
3148.000000	99.620921
3147.000000	99.622883
3146.000000	99.625038
3145.000000	99.627135
3144.000000	99.629028
3143.000000	99.630864
3142.000000	99.632859
3141.000000	99.634976
3140.000000	99.636988
3139.000000	99.638757
3138.000000	99.640294
3137.000000	99.641608
3136.000000	99.642713
3135.000000	99.643768
3134.000000	99.644934
3133.000000	99.646087
3132.000000	99.646900
3131.000000	99.647327
3130.000000	99.647869
3129.000000	99.649233
3128.000000	99.651663
3127.000000	99.654628
3126.000000	99.657249
3125.000000	99.659034
3124.000000	99.660192
3123.000000	99.661250
3122.000000	99.662477
3121.000000	99.663791
3120.000000	99.665151
3119.000000	99.666712
3118.000000	99.668487
3117.000000	99.670152
3116.000000	99.671468
3115.000000	99.672790
3114.000000	99.674763
3113.000000	99.677536
3112.000000	99.680564
3111.000000	99.683173
3110.000000	99.685139
3109.000000	99.686700
3108.000000	99.688195
3107.000000	99.689772
3106.000000	99.691386
3105.000000	99.692973
3104.000000	99.694546
3103.000000	99.696178
3102.000000	99.697935
3101.000000	99.699854
3100.000000	99.701911
3099.000000	99.703997
3098.000000	99.705956
3097.000000	99.707692
3096.000000	99.709247
3095.000000	99.710791
3094.000000	99.712534
3093.000000	99.714626
3092.000000	99.717066
3091.000000	99.719619
3090.000000	99.721882
3089.000000	99.723577
3088.000000	99.724792
3087.000000	99.725940
3086.000000	99.727429
3085.000000	99.729375
3084.000000	99.731610
3083.000000	99.733821
3082.000000	99.735717
3081.000000	99.737151
3080.000000	99.738182
3079.000000	99.739077
3078.000000	99.740177
3077.000000	99.741667
3076.000000	99.743450
3075.000000	99.745211
3074.000000	99.746658
3073.000000	99.747758
3072.000000	99.748761
3071.000000	99.749972
3070.000000	99.751508
3069.000000	99.753259
3068.000000	99.755016
3067.000000	99.756599
3066.000000	99.757880
3065.000000	99.758832
3064.000000	99.759645
3063.000000	99.760739
3062.000000	99.762467
3061.000000	99.764772
3060.000000	99.767147
3059.000000	99.769078
3058.000000	99.770531
3057.000000	99.771934
3056.000000	99.773712
3055.000000	99.775881
3054.000000	99.778063
3053.000000	99.779853
3052.000000	99.781199
3051.000000	99.782488
3050.000000	99.784199
3049.000000	99.786343
3048.000000	99.788298
3047.000000	99.789380
3046.000000	99.789544
3045.000000	99.789395
3044.000000	99.789508
3043.000000	99.790022
3042.000000	99.791006
3041.000000	99.792736
3040.000000	99.795277
3039.000000	99.798155
3038.000000	99.800883
3037.000000	99.803629
3036.000000	99.806778
3035.000000	99.809948
3034.000000	99.812085
3033.000000	99.812820
3032.000000	99.813246
3031.000000	99.814918
3030.000000	99.818171
3029.000000	99.821869
3028.000000	99.824693
3027.000000	99.826251
3026.000000	99.826835
3025.000000	99.826628
3024.000000	99.825674
3023.000000	99.824548
3022.000000	99.824453
3021.000000	99.826282
3020.000000	99.829726
3019.000000	99.833613
3018.000000	99.837079
3017.000000	99.840006
3016.000000	99.842347
3015.000000	99.843846
3014.000000	99.844811
3013.000000	99.846496
3012.000000	99.849924
3011.000000	99.854453
3010.000000	99.857990
3009.000000	99.858720
3008.000000	99.856708
3007.000000	99.854282
3006.000000	99.854848
3005.000000	99.860406
3004.000000	99.869426
3003.000000	99.877614
3002.000000	99.881909
3001.000000	99.883407
3000.000000	99.885477
2999.000000	99.889509
2998.000000	99.893733
2997.000000	99.896182
2996.000000	99.897404
2995.000000	99.899550
2994.000000	99.903692
2993.000000	99.909012
2992.000000	99.914309
2991.000000	99.919516
2990.000000	99.925601
2989.000000	99.933302
2988.000000	99.942097
2987.000000	99.950417
2986.000000	99.956918
2985.000000	99.961528
2984.000000	99.965314
2983.000000	99.969607
2982.000000	99.975333
2981.000000	99.982655
2980.000000	99.990528
2979.000000	99.996724
2978.000000	99.999215
2977.000000	99.997992
2976.000000	99.995317
2975.000000	99.993919
2974.000000	99.994819
2973.000000	99.996719
2972.000000	99.997143
2971.000000	99.994225
2970.000000	99.987958
2969.000000	99.980152
2968.000000	99.973088
2967.000000	99.967902
2966.000000	99.963964
2965.000000	99.959501
2964.000000	99.952800
2963.000000	99.943496
2962.000000	99.933329
2961.000000	99.925322
2960.000000	99.921455
2959.000000	99.920977
2958.000000	99.921375
2957.000000	99.921095
2956.000000	99.920833
2955.000000	99.922015
2954.000000	99.924588
2953.000000	99.926801
2952.000000	99.926917
2951.000000	99.924738
2950.000000	99.921554
2949.000000	99.919055
2948.000000	99.918390
2947.000000	99.919909
2946.000000	99.923286
2945.000000	99.927651
2944.000000	99.931717
2943.000000	99.934142
2942.000000	99.934164
2941.000000	99.932126
2940.000000	99.929406
2939.000000	99.927574
2938.000000	99.927238
2937.000000	99.927557
2936.000000	99.927045
2935.000000	99.925055
2934.000000	99.922404
2933.000000	99.920460
2932.000000	99.919843
2931.000000	99.920116
2930.000000	99.920362
2929.000000	99.919724
2928.000000	99.917756
2927.000000	99.914959
2926.000000	99.912919
2925.000000	99.913339
2924.000000	99.916832
2923.000000	99.922959
2922.000000	99.931019
2921.000000	99.940123
2920.000000	99.948845
2919.000000	99.955774
2918.000000	99.960509
2917.000000	99.963354
2916.000000	99.964221
2915.000000	99.962776
2914.000000	99.959799
2913.000000	99.957378
2912.000000	99.957229
2911.000000	99.959586
2910.000000	99.963802
2909.000000	99.968928
2908.000000	99.973597
2907.000000	99.976559
2906.000000	99.978079
2905.000000	99.979859
2904.000000	99.982778
2903.000000	99.985557
2902.000000	99.986547
2901.000000	99.985773
2900.000000	99.984766
2899.000000	99.984545
2898.000000	99.985331
2897.000000	99.987295
2896.000000	99.990380
2895.000000	99.993632
2894.000000	99.995860
2893.000000	99.996977
2892.000000	99.997890
2891.000000	99.999164
2890.000000	100.000564
2889.000000	100.001826
2888.000000	100.002937
2887.000000	100.003602
2886.000000	100.003281
2885.000000	100.002042
2884.000000	100.000792
2883.000000	100.000416
2882.000000	100.001046
2881.000000	100.002311
2880.000000	100.003868
2879.000000	100.005435
2878.000000	100.006613
2877.000000	100.007016
2876.000000	100.006550
2875.000000	100.005400
2874.000000	100.003890
2873.000000	100.002468
2872.000000	100.001649
2871.000000	100.001702
2870.000000	100.002396
2869.000000	100.003126
2868.000000	100.003363
2867.000000	100.002992
2866.000000	100.002282
2865.000000	100.001680
2864.000000	100.001529
2863.000000	100.001868
2862.000000	100.002447
2861.000000	100.002902
2860.000000	100.002998
2859.000000	100.002729
2858.000000	100.002274
2857.000000	100.001919
2856.000000	100.001875
2855.000000	100.002121
2854.000000	100.002443
2853.000000	100.002647
2852.000000	100.002744
2851.000000	100.002873
2850.000000	100.003106
2849.000000	100.003385
2848.000000	100.003616
2847.000000	100.003781
2846.000000	100.003945
2845.000000	100.004176
2844.000000	100.004495
2843.000000	100.004880
2842.000000	100.005307
2841.000000	100.005761
2840.000000	100.006227
2839.000000	100.006683
2838.000000	100.007131
2837.000000	100.007598
2836.000000	100.008109
2835.000000	100.008664
2834.000000	100.009249
2833.000000	100.009850
2832.000000	100.010457
2831.000000	100.011061
2830.000000	100.011666
2829.000000	100.012294
2828.000000	100.012973
2827.000000	100.013716
2826.000000	100.014492
2825.000000	100.015233
2824.000000	100.015890
2823.000000	100.016469
2822.000000	100.017022
2821.000000	100.017595
2820.000000	100.018207
2819.000000	100.018850
2818.000000	100.019512
2817.000000	100.020196
2816.000000	100.020906
2815.000000	100.021621
2814.000000	100.022310
2813.000000	100.022966
2812.000000	100.023612
2811.000000	100.024272
2810.000000	100.024953
2809.000000	100.025642
2808.000000	100.026330
2807.000000	100.027023
2806.000000	100.027731
2805.000000	100.028464
2804.000000	100.029221
2803.000000	100.029997
2802.000000	100.030781
2801.000000	100.031562
2800.000000	100.032339
2799.000000	100.033119
2798.000000	100.033909
2797.000000	100.034711
2796.000000	100.035517
2795.000000	100.036313
2794.000000	100.037087
2793.000000	100.037838
2792.000000	100.038579
2791.000000	100.039321
2790.000000	100.040069
2789.000000	100.040819
2788.000000	100.041564
2787.000000	100.042297
2786.000000	100.043018
2785.000000	100.043734
2784.000000	100.044453
2783.000000	100.045178
2782.000000	100.045909
2781.000000	100.046638
2780.000000	100.047356
2779.000000	100.048059
2778.000000	100.048750
2777.000000	100.049438
2776.000000	100.050135
2775.000000	100.050845
2774.000000	100.051563
2773.000000	100.052274
2772.000000	100.052969
2771.000000	100.053644
2770.000000	100.054306
2769.000000	100.054960
2768.000000	100.055613
2767.000000	100.056264
2766.000000	100.056909
2765.000000	100.057535
2764.000000	100.058124
2763.000000	100.058665
2762.000000	100.059161
2761.000000	100.059624
2760.000000	100.060068
2759.000000	100.060502
2758.000000	100.060926
2757.000000	100.061340
2756.000000	100.061739
2755.000000	100.062121
2754.000000	100.062489
2753.000000	100.062853
2752.000000	100.063225
2751.000000	100.063609
2750.000000	100.064005
2749.000000	100.064405
2748.000000	100.064796
2747.000000	100.065167
2746.000000	100.065516
2745.000000	100.065848
2744.000000	100.066175
2743.000000	100.066502
2742.000000	100.066825
2741.000000	100.067137
2740.000000	100.067441
2739.000000	100.067743
2738.000000	100.068055
2737.000000	100.068379
2736.000000	100.068714
2735.000000	100.069052
2734.000000	100.069389
2733.000000	100.069722
2732.000000	100.070051
2731.000000	100.070378
2730.000000	100.070706
2729.000000	100.071042
2728.000000	100.071384
2727.000000	100.071724
2726.000000	100.072051
2725.000000	100.072357
2724.000000	100.072644
2723.000000	100.072922
2722.000000	100.073202
2721.000000	100.073493
2720.000000	100.073797
2719.000000	100.074105
2718.000000	100.074404
2717.000000	100.074684
2716.000000	100.074943
2715.000000	100.075191
2714.000000	100.075438
2713.000000	100.075687
2712.000000	100.075938
2711.000000	100.076169
2710.000000	100.076344
2709.000000	100.076467
2708.000000	100.076587
2707.000000	100.076722
2706.000000	100.076829
2705.000000	100.076884
2704.000000	100.076927
2703.000000	100.077001
2702.000000	100.077082
2701.000000	100.077127
2700.000000	100.077137
2699.000000	100.077151
2698.000000	100.077154
2697.000000	100.077088
2696.000000	100.076937
2695.000000	100.076746
2694.000000	100.076592
2693.000000	100.076530
2692.000000	100.076569
2691.000000	100.076603
2690.000000	100.076466
2689.000000	100.076077
2688.000000	100.075543
2687.000000	100.075102
2686.000000	100.074872
2685.000000	100.074796
2684.000000	100.074749
2683.000000	100.074668
2682.000000	100.074503
2681.000000	100.074187
2680.000000	100.073726
2679.000000	100.073227
2678.000000	100.072784
2677.000000	100.072422
2676.000000	100.072181
2675.000000	100.072139
2674.000000	100.072288
2673.000000	100.072498
2672.000000	100.072617
2671.000000	100.072570
2670.000000	100.072383
2669.000000	100.072181
2668.000000	100.072155
2667.000000	100.072422
2666.000000	100.072867
2665.000000	100.073161
2664.000000	100.072984
2663.000000	100.072212
2662.000000	100.070992
2661.000000	100.069776
2660.000000	100.069129
2659.000000	100.069340
2658.000000	100.070183
2657.000000	100.071091
2656.000000	100.071683
2655.000000	100.071998
2654.000000	100.072272
2653.000000	100.072642
2652.000000	100.073077
2651.000000	100.073505
2650.000000	100.073970
2649.000000	100.074638
2648.000000	100.075588
2647.000000	100.076533
2646.000000	100.076920
2645.000000	100.076437
2644.000000	100.075387
2643.000000	100.074550
2642.000000	100.074449
2641.000000	100.074957
2640.000000	100.075523
2639.000000	100.075730
2638.000000	100.075643
2637.000000	100.075653
2636.000000	100.076046
2635.000000	100.076770
2634.000000	100.077538
2633.000000	100.078077
2632.000000	100.078257
2631.000000	100.078087
2630.000000	100.077720
2629.000000	100.077386
2628.000000	100.077211
2627.000000	100.077110
2626.000000	100.076934
2625.000000	100.076690
2624.000000	100.076518
2623.000000	100.076469
2622.000000	100.076425
2621.000000	100.076269
2620.000000	100.076020
2619.000000	100.075789
2618.000000	100.075656
2617.000000	100.075626
2616.000000	100.075642
2615.000000	100.075632
2614.000000	100.075586
2613.000000	100.075564
2612.000000	100.075586
2611.000000	100.075545
2610.000000	100.075296
2609.000000	100.074807
2608.000000	100.074183
2607.000000	100.073606
2606.000000	100.073263
2605.000000	100.073245
2604.000000	100.073497
2603.000000	100.073784
2602.000000	100.073896
2601.000000	100.073848
2600.000000	100.073800
2599.000000	100.073839
2598.000000	100.073910
2597.000000	100.073928
2596.000000	100.073887
2595.000000	100.073837
2594.000000	100.073804
2593.000000	100.073773
2592.000000	100.073729
2591.000000	100.073684
2590.000000	100.073666
2589.000000	100.073690
2588.000000	100.073748
2587.000000	100.073818
2586.000000	100.073884
2585.000000	100.073945
2584.000000	100.074005
2583.000000	100.074074
2582.000000	100.074152
2581.000000	100.074239
2580.000000	100.074337
2579.000000	100.074443
2578.000000	100.074554
2577.000000	100.074670
2576.000000	100.074795
2575.000000	100.074932
2574.000000	100.075085
2573.000000	100.075256
2572.000000	100.075444
2571.000000	100.075638
2570.000000	100.075825
2569.000000	100.075994
2568.000000	100.076138
2567.000000	100.076263
2566.000000	100.076380
2565.000000	100.076507
2564.000000	100.076651
2563.000000	100.076804
2562.000000	100.076949
2561.000000	100.077070
2560.000000	100.077166
2559.000000	100.077244
2558.000000	100.077313
2557.000000	100.077370
2556.000000	100.077411
2555.000000	100.077433
2554.000000	100.077443
2553.000000	100.077449
2552.000000	100.077465
2551.000000	100.077496
2550.000000	100.077536
2549.000000	100.077574
2548.000000	100.077600
2547.000000	100.077614
2546.000000	100.077616
2545.000000	100.077613
2544.000000	100.077607
2543.000000	100.077598
2542.000000	100.077587
2541.000000	100.077574
2540.000000	100.077560
2539.000000	100.077543
2538.000000	100.077523
2537.000000	100.077495
2536.000000	100.077457
2535.000000	100.077409
2534.000000	100.077352
2533.000000	100.077283
2532.000000	100.077199
2531.000000	100.077097
2530.000000	100.076974
2529.000000	100.076831
2528.000000	100.076677
2527.000000	100.076525
2526.000000	100.076385
2525.000000	100.076264
2524.000000	100.076159
2523.000000	100.076059
2522.000000	100.075948
2521.000000	100.075818
2520.000000	100.075674
2519.000000	100.075534
2518.000000	100.075414
2517.000000	100.075315
2516.000000	100.075243
2515.000000	100.075192
2514.000000	100.075149
2513.000000	100.075120
2512.000000	100.075135
2511.000000	100.075206
2510.000000	100.075265
2509.000000	100.075177
2508.000000	100.074844
2507.000000	100.074290
2506.000000	100.073681
2505.000000	100.073237
2504.000000	100.073105
2503.000000	100.073275
2502.000000	100.073580
2501.000000	100.073839
2500.000000	100.073955
2499.000000	100.073901
2498.000000	100.073684
2497.000000	100.073392
2496.000000	100.073189
2495.000000	100.073160
2494.000000	100.073166
2493.000000	100.072979
2492.000000	100.072572
2491.000000	100.072215
2490.000000	100.072236
2489.000000	100.072773
2488.000000	100.073695
2487.000000	100.074655
2486.000000	100.075243
2485.000000	100.075268
2484.000000	100.074933
2483.000000	100.074684
2482.000000	100.074848
2481.000000	100.075465
2480.000000	100.076368
2479.000000	100.077269
2478.000000	100.077876
2477.000000	100.078134
2476.000000	100.078162
2475.000000	100.077875
2474.000000	100.077051
2473.000000	100.075860
2472.000000	100.074999
2471.000000	100.074963
2470.000000	100.075411
2469.000000	100.075622
2468.000000	100.075345
2467.000000	100.074811
2466.000000	100.074185
2465.000000	100.073529
2464.000000	100.073121
2463.000000	100.073229
2462.000000	100.073594
2461.000000	100.073654
2460.000000	100.073351
2459.000000	100.073188
2458.000000	100.073529
2457.000000	100.074278
2456.000000	100.075243
2455.000000	100.076278
2454.000000	100.076978
2453.000000	100.076735
2452.000000	100.075374
2451.000000	100.073507
2450.000000	100.072037
2449.000000	100.071374
2448.000000	100.071324
2447.000000	100.071514
2446.000000	100.071769
2445.000000	100.072189
2444.000000	100.072967
2443.000000	100.074128
2442.000000	100.075441
2441.000000	100.076660
2440.000000	100.077721
2439.000000	100.078560
2438.000000	100.078881
2437.000000	100.078349
2436.000000	100.077024
2435.000000	100.075477
2434.000000	100.074433
2433.000000	100.074285
2432.000000	100.074878
2431.000000	100.075576
2430.000000	100.075704
2429.000000	100.075200
2428.000000	100.074723
2427.000000	100.074922
2426.000000	100.075740
2425.000000	100.076613
2424.000000	100.077082
2423.000000	100.076904
2422.000000	100.075980
2421.000000	100.074758
2420.000000	100.074407
2419.000000	100.075791
2418.000000	100.078237
2417.000000	100.079996
2416.000000	100.080130
2415.000000	100.079258
2414.000000	100.078406
2413.000000	100.077753
2412.000000	100.076884
2411.000000	100.075690
2410.000000	100.074434
2409.000000	100.073243
2408.000000	100.072025
2407.000000	100.070866
2406.000000	100.070129
2405.000000	100.070077
2404.000000	100.070517
2403.000000	100.070919
2402.000000	100.070939
2401.000000	100.070768
2400.000000	100.070947
2399.000000	100.071804
2398.000000	100.073083
2397.000000	100.074042
2396.000000	100.073945
2395.000000	100.072523
2394.000000	100.070150
2393.000000	100.067730
2392.000000	100.065790
2391.000000	100.064049
2390.000000	100.062210
2389.000000	100.060493
2388.000000	100.058933
2387.000000	100.056955
2386.000000	100.054281
2385.000000	100.051473
2384.000000	100.049307
2383.000000	100.047894
2382.000000	100.046795
2381.000000	100.045724
2380.000000	100.044746
2379.000000	100.043895
2378.000000	100.042998
2377.000000	100.041918
2376.000000	100.040691
2375.000000	100.039399
2374.000000	100.038088
2373.000000	100.036784
2372.000000	100.035500
2371.000000	100.034229
2370.000000	100.032959
2369.000000	100.031689
2368.000000	100.030422
2367.000000	100.029165
2366.000000	100.027923
2365.000000	100.026704
2364.000000	100.025505
2363.000000	100.024317
2362.000000	100.023124
2361.000000	100.021921
2360.000000	100.020719
2359.000000	100.019533
2358.000000	100.018383
2357.000000	100.017283
2356.000000	100.016245
2355.000000	100.015269
2354.000000	100.014348
2353.000000	100.013460
2352.000000	100.012581
2351.000000	100.011693
2350.000000	100.010805
2349.000000	100.009942
2348.000000	100.009135
2347.000000	100.008408
2346.000000	100.007757
2345.000000	100.007166
2344.000000	100.006621
2343.000000	100.006126
2342.000000	100.005691
2341.000000	100.005321
2340.000000	100.005014
2339.000000	100.004769
2338.000000	100.004580
2337.000000	100.004441
2336.000000	100.004345
2335.000000	100.004295
2334.000000	100.004289
2333.000000	100.004352
2332.000000	100.004510
2331.000000	100.004768
2330.000000	100.005126
2329.000000	100.005589
2328.000000	100.006092
2327.000000	100.006565
2326.000000	100.007034
2325.000000	100.007636
2324.000000	100.008430
2323.000000	100.009310
2322.000000	100.010075
2321.000000	100.010634
2320.000000	100.011035
2319.000000	100.011479
2318.000000	100.012111
2317.000000	100.013042
2316.000000	100.014244
2315.000000	100.015679
2314.000000	100.017009
2313.000000	100.017862
2312.000000	100.018044
2311.000000	100.018205
2310.000000	100.019209
2309.000000	100.021471
2308.000000	100.024375
2307.000000	100.027188
2306.000000	100.029721
2305.000000	100.032350
2304.000000	100.035079
2303.000000	100.037590
2302.000000	100.039212
2301.000000	100.039754
2300.000000	100.039727
2299.000000	100.040168
2298.000000	100.041465
2297.000000	100.043599
2296.000000	100.046185
2295.000000	100.048892
2294.000000	100.050933
2293.000000	100.051838
2292.000000	100.052171
2291.000000	100.053238
2290.000000	100.055322
2289.000000	100.057248
2288.000000	100.057826
2287.000000	100.057082
2286.000000	100.055904
2285.000000	100.054953
2284.000000	100.054565
2283.000000	100.055005
2282.000000	100.056303
2281.000000	100.057884
2280.000000	100.059043
2279.000000	100.059585
2278.000000	100.059869
2277.000000	100.060315
2276.000000	100.061045
2275.000000	100.061879
2274.000000	100.062447
2273.000000	100.062524
2272.000000	100.062296
2271.000000	100.062219
2270.000000	100.062438
2269.000000	100.062613
2268.000000	100.062395
2267.000000	100.061866
2266.000000	100.061314
2265.000000	100.060794
2264.000000	100.060176
2263.000000	100.059504
2262.000000	100.059038
2261.000000	100.058921
2260.000000	100.058985
2259.000000	100.058938
2258.000000	100.058660
2257.000000	100.058259
2256.000000	100.057896
2255.000000	100.057629
2254.000000	100.057403
2253.000000	100.057153
2252.000000	100.056850
2251.000000	100.056506
2250.000000	100.056140
2249.000000	100.055775
2248.000000	100.055429
2247.000000	100.055111
2246.000000	100.054819
2245.000000	100.054548
2244.000000	100.054291
2243.000000	100.054043
2242.000000	100.053805
2241.000000	100.053580
2240.000000	100.053370
2239.000000	100.053170
2238.000000	100.052977
2237.000000	100.052786
2236.000000	100.052593
2235.000000	100.052399
2234.000000	100.052206
2233.000000	100.052018
2232.000000	100.051839
2231.000000	100.051668
2230.000000	100.051504
2229.000000	100.051344
2228.000000	100.051188
2227.000000	100.051038
2226.000000	100.050904
2225.000000	100.050799
2224.000000	100.050739
2223.000000	100.050729
2222.000000	100.050750
2221.000000	100.050782
2220.000000	100.050825
2219.000000	100.050904
2218.000000	100.051040
2217.000000	100.051201
2216.000000	100.051315
2215.000000	100.051318
2214.000000	100.051198
2213.000000	100.051000
2212.000000	100.050828
2211.000000	100.050788
2210.000000	100.050903
2209.000000	100.051078
2208.000000	100.051189
2207.000000	100.051233
2206.000000	100.051328
2205.000000	100.051552
2204.000000	100.051842
2203.000000	100.052062
2202.000000	100.052147
2201.000000	100.052156
2200.000000	100.052210
2199.000000	100.052367
2198.000000	100.052584
2197.000000	100.052770
2196.000000	100.052864
2195.000000	100.052863
2194.000000	100.052815
2193.000000	100.052790
2192.000000	100.052834
2191.000000	100.052939
2190.000000	100.053072
2189.000000	100.053228
2188.000000	100.053448
2187.000000	100.053760
2186.000000	100.054137
2185.000000	100.054522
2184.000000	100.054885
2183.000000	100.055224
2182.000000	100.055541
2181.000000	100.055817
2180.000000	100.056017
2179.000000	100.056112
2178.000000	100.056121
2177.000000	100.056146
2176.000000	100.056317
2175.000000	100.056682
2174.000000	100.057186
2173.000000	100.057715
2172.000000	100.058163
2171.000000	100.058443
2170.000000	100.058480
2169.000000	100.058262
2168.000000	100.057945
2167.000000	100.057798
2166.000000	100.057989
2165.000000	100.058479
2164.000000	100.059059
2163.000000	100.059570
2162.000000	100.059981
2161.000000	100.060318
2160.000000	100.060587
2159.000000	100.060745
2158.000000	100.060726
2157.000000	100.060511
2156.000000	100.060204
2155.000000	100.059953
2154.000000	100.059817
2153.000000	100.059773
2152.000000	100.059866
2151.000000	100.060198
2150.000000	100.060717
2149.000000	100.061142
2148.000000	100.061240
2147.000000	100.061107
2146.000000	100.061056
2145.000000	100.061233
2144.000000	100.061434
2143.000000	100.061360
2142.000000	100.060971
2141.000000	100.060540
2140.000000	100.060323
2139.000000	100.060248
2138.000000	100.060083
2137.000000	100.059854
2136.000000	100.059870
2135.000000	100.060150
2134.000000	100.060108
2133.000000	100.059149
2132.000000	100.057515
2131.000000	100.056140
2130.000000	100.055545
2129.000000	100.055370
2128.000000	100.055100
2127.000000	100.054960
2126.000000	100.055589
2125.000000	100.057014
2124.000000	100.058338
2123.000000	100.058624
2122.000000	100.058001
2121.000000	100.057552
2120.000000	100.058065
2119.000000	100.059142
2118.000000	100.059807
2117.000000	100.059845
2116.000000	100.060053
2115.000000	100.061065
2114.000000	100.062469
2113.000000	100.063358
2112.000000	100.063408
2111.000000	100.062964
2110.000000	100.062356
2109.000000	100.061674
2108.000000	100.061174
2107.000000	100.061353
2106.000000	100.062410
2105.000000	100.063959
2104.000000	100.065434
2103.000000	100.066650
2102.000000	100.067777
2101.000000	100.068903
2100.000000	100.069766
2099.000000	100.069985
2098.000000	100.069527
2097.000000	100.068907
2096.000000	100.068819
2095.000000	100.069474
2094.000000	100.070526
2093.000000	100.071643
2092.000000	100.072846
2091.000000	100.074061
2090.000000	100.074700
2089.000000	100.074271
2088.000000	100.073139
2087.000000	100.072290
2086.000000	100.072172
2085.000000	100.072352
2084.000000	100.072356
2083.000000	100.072359
2082.000000	100.072807
2081.000000	100.073737
2080.000000	100.074778
2079.000000	100.075569
2078.000000	100.075884
2077.000000	100.075564
2076.000000	100.074714
2075.000000	100.073819
2074.000000	100.073408
2073.000000	100.073641
2072.000000	100.074308
2071.000000	100.075089
2070.000000	100.075658
2069.000000	100.075737
2068.000000	100.075294
2067.000000	100.074606
2066.000000	100.074018
2065.000000	100.073737
2064.000000	100.073916
2063.000000	100.074614
2062.000000	100.075588
2061.000000	100.076407
2060.000000	100.076953
2059.000000	100.077506
2058.000000	100.078155
2057.000000	100.078458
2056.000000	100.078004
2055.000000	100.077065
2054.000000	100.076420
2053.000000	100.076635
2052.000000	100.077649
2051.000000	100.078936
2050.000000	100.079818
2049.000000	100.079673
2048.000000	100.078199
2047.000000	100.075694
2046.000000	100.072978
2045.000000	100.070855
2044.000000	100.069657
2043.000000	100.069202
2042.000000	100.069019
2041.000000	100.068741
2040.000000	100.068336
2039.000000	100.067906
2038.000000	100.067321
2037.000000	100.066287
2036.000000	100.064728
2035.000000	100.062898
2034.000000	100.061136
2033.000000	100.059785
2032.000000	100.059242
2031.000000	100.059642
2030.000000	100.060466
2029.000000	100.060797
2028.000000	100.060187
2027.000000	100.059013
2026.000000	100.057898
2025.000000	100.057071
2024.000000	100.056381
2023.000000	100.055688
2022.000000	100.054879
2021.000000	100.053680
2020.000000	100.051873
2019.000000	100.049670
2018.000000	100.047627
2017.000000	100.046147
2016.000000	100.045281
2015.000000	100.044897
2014.000000	100.044760
2013.000000	100.044486
2012.000000	100.043703
2011.000000	100.042360
2010.000000	100.040774
2009.000000	100.039334
2008.000000	100.038250
2007.000000	100.037468
2006.000000	100.036667
2005.000000	100.035466
2004.000000	100.033828
2003.000000	100.032353
2002.000000	100.031818
2001.000000	100.032400
2000.000000	100.033467
1999.000000	100.034038
1998.000000	100.033742
1997.000000	100.033012
1996.000000	100.032298
1995.000000	100.031440
1994.000000	100.030120
1993.000000	100.028503
1992.000000	100.027024
1991.000000	100.025779
1990.000000	100.024604
1989.000000	100.023652
1988.000000	100.023276
1987.000000	100.023340
1986.000000	100.023130
1985.000000	100.022163
1984.000000	100.020782
1983.000000	100.019773
1982.000000	100.019578
1981.000000	100.020053
1980.000000	100.020702
1979.000000	100.020933
1978.000000	100.020700
1977.000000	100.020713
1976.000000	100.021675
1975.000000	100.023437
1974.000000	100.025162
1973.000000	100.026139
1972.000000	100.026172
1971.000000	100.025391
1970.000000	100.024199
1969.000000	100.023244
1968.000000	100.023025
1967.000000	100.023460
1966.000000	100.024011
1965.000000	100.024296
1964.000000	100.024417
1963.000000	100.024736
1962.000000	100.025383
1961.000000	100.026019
1960.000000	100.026071
1959.000000	100.025332
1958.000000	100.024322
1957.000000	100.023797
1956.000000	100.023856
1955.000000	100.023897
1954.000000	100.023450
1953.000000	100.022711
1952.000000	100.022205
1951.000000	100.022214
1950.000000	100.022494
1949.000000	100.022599
1948.000000	100.022330
1947.000000	100.021738
1946.000000	100.020983
1945.000000	100.020331
1944.000000	100.020067
1943.000000	100.020198
1942.000000	100.020296
1941.000000	100.019921
1940.000000	100.019054
1939.000000	100.017997
1938.000000	100.017021
1937.000000	100.016207
1936.000000	100.015505
1935.000000	100.014835
1934.000000	100.014162
1933.000000	100.013465
1932.000000	100.012736
1931.000000	100.012040
1930.000000	100.011324
1929.000000	100.010609
1928.000000	100.010224
1927.000000	100.010309
1926.000000	100.010309
1925.000000	100.009269
1924.000000	100.007088
1923.000000	100.004845
1922.000000	100.003553
1921.000000	100.003038
1920.000000	100.002405
1919.000000	100.000968
1918.000000	99.998685
1917.000000	99.996221
1916.000000	99.994713
1915.000000	99.994680
1914.000000	99.995309
1913.000000	99.995018
1912.000000	99.992937
1911.000000	99.989492
1910.000000	99.985526
1909.000000	99.981744
1908.000000	99.978876
1907.000000	99.977357
1906.000000	99.976730
1905.000000	99.975577
1904.000000	99.973303
1903.000000	99.970753
1902.000000	99.968626
1901.000000	99.966761
1900.000000	99.964834
1899.000000	99.962774
1898.000000	99.960719
1897.000000	99.958653
1896.000000	99.956820
1895.000000	99.955447
1894.000000	99.953874
1893.000000	99.951332
1892.000000	99.948306
1891.000000	99.945933
1890.000000	99.944542
1889.000000	99.943678
1888.000000	99.943244
1887.000000	99.943083
1886.000000	99.942194
1885.000000	99.939821
1884.000000	99.936798
1883.000000	99.934306
1882.000000	99.931796
1881.000000	99.928500
1880.000000	99.925653
1879.000000	99.925107
1878.000000	99.926963
1877.000000	99.929641
1876.000000	99.932090
1875.000000	99.934603
1874.000000	99.936903
1873.000000	99.937542
1872.000000	99.935993
1871.000000	99.933471
1870.000000	99.931142
1869.000000	99.929014
1868.000000	99.927634
1867.000000	99.928202
1866.000000	99.930140
1865.000000	99.931853
1864.000000	99.932895
1863.000000	99.933670
1862.000000	99.933814
1861.000000	99.932811
1860.000000	99.932319
1859.000000	99.935273
1858.000000	99.942087
1857.000000	99.949577
1856.000000	99.954262
1855.000000	99.955382
1854.000000	99.954308
1853.000000	99.953145
1852.000000	99.953786
1851.000000	99.956238
1850.000000	99.959045
1849.000000	99.960836
1848.000000	99.961553
1847.000000	99.961883
1846.000000	99.962192
1845.000000	99.962805
1844.000000	99.964429
1843.000000	99.967220
1842.000000	99.969943
1841.000000	99.971875
1840.000000	99.973631
1839.000000	99.976009
1838.000000	99.978900
1837.000000	99.981268
1836.000000	99.982887
1835.000000	99.984317
1834.000000	99.985491
1833.000000	99.985697
1832.000000	99.984404
1831.000000	99.981980
1830.000000	99.980198
1829.000000	99.980205
1828.000000	99.981065
1827.000000	99.981594
1826.000000	99.981709
1825.000000	99.981458
1824.000000	99.980640
1823.000000	99.979654
1822.000000	99.979228
1821.000000	99.979640
1820.000000	99.980669
1819.000000	99.982214
1818.000000	99.983892
1817.000000	99.984437
1816.000000	99.983688
1815.000000	99.983312
1814.000000	99.984153
1813.000000	99.984666
1812.000000	99.983191
1811.000000	99.981384
1810.000000	99.981515
1809.000000	99.982569
1808.000000	99.982788
1807.000000	99.982774
1806.000000	99.983742
1805.000000	99.985251
1804.000000	99.986230
1803.000000	99.986742
1802.000000	99.987512
1801.000000	99.988615
1800.000000	99.989416
1799.000000	99.989875
1798.000000	99.990070
1797.000000	99.989870
1796.000000	99.989604
1795.000000	99.989963
1794.000000	99.991251
1793.000000	99.993032
1792.000000	99.994416
1791.000000	99.995420
1790.000000	99.996397
1789.000000	99.997329
1788.000000	99.998317
1787.000000	99.999687
1786.000000	100.001366
1785.000000	100.002732
1784.000000	100.003602
1783.000000	100.004467
1782.000000	100.005680
1781.000000	100.007281
1780.000000	100.008898
1779.000000	100.010364
1778.000000	100.011698
1777.000000	100.013067
1776.000000	100.014638
1775.000000	100.016148
1774.000000	100.017127
1773.000000	100.017366
1772.000000	100.017040
1771.000000	100.017142
1770.000000	100.018696
1769.000000	100.021432
1768.000000	100.024088
1767.000000	100.025852
1766.000000	100.027010
1765.000000	100.028084
1764.000000	100.029030
1763.000000	100.029692
1762.000000	100.030432
1761.000000	100.031729
1760.000000	100.033177
1759.000000	100.034436
1758.000000	100.035544
1757.000000	100.036754
1756.000000	100.037803
1755.000000	100.038458
1754.000000	100.039655
1753.000000	100.042408
1752.000000	100.045572
1751.000000	100.046072
1750.000000	100.043185
1749.000000	100.039639
1748.000000	100.037928
1747.000000	100.037567
1746.000000	100.037469
1745.000000	100.037549
1744.000000	100.037507
1743.000000	100.036989
1742.000000	100.036497
1741.000000	100.036665
1740.000000	100.036906
1739.000000	100.036297
1738.000000	100.034968
1737.000000	100.033648
1736.000000	100.032793
1735.000000	100.032458
1734.000000	100.031373
1733.000000	100.029177
1732.000000	100.027189
1731.000000	100.025974
1730.000000	100.025239
1729.000000	100.024746
1728.000000	100.024098
1727.000000	100.022816
1726.000000	100.021395
1725.000000	100.020749
1724.000000	100.020608
1723.000000	100.020314
1722.000000	100.019483
1721.000000	100.018025
1720.000000	100.016297
1719.000000	100.015531
1718.000000	100.016347
1717.000000	100.015302
1716.000000	100.010938
1715.000000	100.006752
1714.000000	100.004280
1713.000000	100.001735
1712.000000	99.998265
1711.000000	99.994605
1710.000000	99.991250
1709.000000	99.987690
1708.000000	99.983470
1707.000000	99.979497
1706.000000	99.977074
1705.000000	99.975507
1704.000000	99.973289
1703.000000	99.970420
1702.000000	99.967829
1701.000000	99.965815
1700.000000	99.962905
1699.000000	99.959422
1698.000000	99.955708
1697.000000	99.951091
1696.000000	99.946098
1695.000000	99.942310
1694.000000	99.939583
1693.000000	99.936606
1692.000000	99.932985
1691.000000	99.929104
1690.000000	99.925341
1689.000000	99.921861
1688.000000	99.918675
1687.000000	99.915656
1686.000000	99.912634
1685.000000	99.908754
1684.000000	99.903158
1683.000000	99.897473
1682.000000	99.892500
1681.000000	99.888186
1680.000000	99.884461
1679.000000	99.881078
1678.000000	99.877469
1677.000000	99.873511
1676.000000	99.869418
1675.000000	99.864982
1674.000000	99.860559
1673.000000	99.857218
1672.000000	99.854884
1671.000000	99.852384
1670.000000	99.847584
1669.000000	99.840812
1668.000000	99.835384
1667.000000	99.832608
1666.000000	99.831629
1665.000000	99.831020
1664.000000	99.829601
1663.000000	99.826574
1662.000000	99.821323
1661.000000	99.815378
1660.000000	99.810896
1659.000000	99.808173
1658.000000	99.806527
1657.000000	99.805227
1656.000000	99.803658
1655.000000	99.799989
1654.000000	99.792628
1653.000000	99.780944
1652.000000	99.774237
1651.000000	99.773774
1650.000000	99.775750
1649.000000	99.776674
1648.000000	99.776590
1647.000000	99.775755
1646.000000	99.775618
1645.000000	99.777353
1644.000000	99.780543
1643.000000	99.784031
1642.000000	99.785922
1641.000000	99.785948
1640.000000	99.785580
1639.000000	99.785952
1638.000000	99.786690
1637.000000	99.786576
1636.000000	99.785552
1635.000000	99.783969
1634.000000	99.784106
1633.000000	99.786057
1632.000000	99.788807
1631.000000	99.790455
1630.000000	99.789367
1629.000000	99.786757
1628.000000	99.786842
1627.000000	99.791110
1626.000000	99.796221
1625.000000	99.799369
1624.000000	99.800966
1623.000000	99.802497
1622.000000	99.804505
1621.000000	99.808199
1620.000000	99.813794
1619.000000	99.819078
1618.000000	99.820951
1617.000000	99.819524
1616.000000	99.820329
1615.000000	99.825238
1614.000000	99.830332
1613.000000	99.834073
1612.000000	99.838593
1611.000000	99.845196
1610.000000	99.851904
1609.000000	99.857449
1608.000000	99.862652
1607.000000	99.867273
1606.000000	99.870021
1605.000000	99.871995
1604.000000	99.875150
1603.000000	99.879439
1602.000000	99.883754
1601.000000	99.887789
1600.000000	99.891544
1599.000000	99.894218
1598.000000	99.895707
1597.000000	99.897291
1596.000000	99.899877
1595.000000	99.902937
1594.000000	99.905701
1593.000000	99.908486
1592.000000	99.911801
1591.000000	99.915313
1590.000000	99.918500
1589.000000	99.921539
1588.000000	99.924795
1587.000000	99.928171
1586.000000	99.931402
1585.000000	99.934488
1584.000000	99.937518
1583.000000	99.940464
1582.000000	99.943339
1581.000000	99.946208
1580.000000	99.949069
1579.000000	99.951882
1578.000000	99.954627
1577.000000	99.957306
1576.000000	99.959920
1575.000000	99.962461
1574.000000	99.964919
1573.000000	99.967287
1572.000000	99.969568
1571.000000	99.971770
1570.000000	99.973899
1569.000000	99.975963
1568.000000	99.977966
1567.000000	99.979908
1566.000000	99.981786
1565.000000	99.983603
1564.000000	99.985368
1563.000000	99.987088
1562.000000	99.988770
1561.000000	99.990419
1560.000000	99.992037
1559.000000	99.993601
1558.000000	99.995082
1557.000000	99.996491
1556.000000	99.997848
1555.000000	99.999161
1554.000000	100.000428
1553.000000	100.001643
1552.000000	100.002806
1551.000000	100.003918
1550.000000	100.004983
1549.000000	100.006007
1548.000000	100.006998
1547.000000	100.007960
1546.000000	100.008888
1545.000000	100.009773
1544.000000	100.010612
1543.000000	100.011432
1542.000000	100.012273
1541.000000	100.013116
1540.000000	100.013897
1539.000000	100.014636
1538.000000	100.015354
1537.000000	100.015987
1536.000000	100.016510
1535.000000	100.016955
1534.000000	100.017340
1533.000000	100.017683
1532.000000	100.018097
1531.000000	100.018730
1530.000000	100.019564
1529.000000	100.020389
1528.000000	100.021102
1527.000000	100.021833
1526.000000	100.022676
1525.000000	100.023436
1524.000000	100.023915
1523.000000	100.024327
1522.000000	100.025091
1521.000000	100.026159
1520.000000	100.027083
1519.000000	100.027564
1518.000000	100.027677
1517.000000	100.027782
1516.000000	100.028350
1515.000000	100.029667
1514.000000	100.031457
1513.000000	100.033284
1512.000000	100.034623
1511.000000	100.035445
1510.000000	100.036155
1509.000000	100.037168
1508.000000	100.038531
1507.000000	100.040116
1506.000000	100.041479
1505.000000	100.042274
1504.000000	100.042735
1503.000000	100.043370
1502.000000	100.044381
1501.000000	100.045686
1500.000000	100.046841
1499.000000	100.047514
1498.000000	100.048015
1497.000000	100.048426
1496.000000	100.048400
1495.000000	100.048592
1494.000000	100.049735
1493.000000	100.051538
1492.000000	100.053218
1491.000000	100.054318
1490.000000	100.054697
1489.000000	100.054091
1488.000000	100.052993
1487.000000	100.053176
1486.000000	100.054697
1485.000000	100.055906
1484.000000	100.056058
1483.000000	100.055597
1482.000000	100.055683
1481.000000	100.056429
1480.000000	100.057128
1479.000000	100.057636
1478.000000	100.058449
1477.000000	100.059421
1476.000000	100.060084
1475.000000	100.061264
1474.000000	100.063004
1473.000000	100.063039
1472.000000	100.058986
1471.000000	100.053388
1470.000000	100.049323
1469.000000	100.046608
1468.000000	100.043974
1467.000000	100.041728
1466.000000	100.040717
1465.000000	100.040872
1464.000000	100.041519
1463.000000	100.042578
1462.000000	100.044143
1461.000000	100.044933
1460.000000	100.044365
1459.000000	100.043857
1458.000000	100.046542
1457.000000	100.049539
1456.000000	100.045853
1455.000000	100.037374
1454.000000	100.030620
1453.000000	100.027209
1452.000000	100.024831
1451.000000	100.022135
1450.000000	100.020437
1449.000000	100.019716
1448.000000	100.016630
1447.000000	100.009989
1446.000000	100.002875
1445.000000	99.998780
1444.000000	99.996921
1443.000000	99.994889
1442.000000	99.992306
1441.000000	99.990391
1440.000000	99.988543
1439.000000	99.984360
1438.000000	99.977939
1437.000000	99.971330
1436.000000	99.966450
1435.000000	99.964653
1434.000000	99.966210
1433.000000	99.968936
1432.000000	99.970531
1431.000000	99.970135
1430.000000	99.970154
1429.000000	99.972850
1428.000000	99.976590
1427.000000	99.978653
1426.000000	99.978408
1425.000000	99.978917
1424.000000	99.981103
1423.000000	99.982559
1422.000000	99.983500
1421.000000	99.986991
1420.000000	99.993652
1419.000000	99.999020
1418.000000	100.002352
1417.000000	100.005302
1416.000000	100.006554
1415.000000	100.006162
1414.000000	100.006638
1413.000000	100.009387
1412.000000	100.011711
1411.000000	100.010731
1410.000000	100.008933
1409.000000	100.009724
1408.000000	100.012164
1407.000000	100.014351
1406.000000	100.016678
1405.000000	100.021398
1404.000000	100.027025
1403.000000	100.030182
1402.000000	100.031798
1401.000000	100.035089
1400.000000	100.041006
1399.000000	100.046905
1398.000000	100.051624
1397.000000	100.056610
1396.000000	100.061925
1395.000000	100.065031
1394.000000	100.065348
1393.000000	100.066529
1392.000000	100.069488
1391.000000	100.072084
1390.000000	100.072758
1389.000000	100.072233
1388.000000	100.072719
1387.000000	100.075603
1386.000000	100.079538
1385.000000	100.082053
1384.000000	100.082034
1383.000000	100.080404
1382.000000	100.079021
1381.000000	100.078397
1380.000000	100.078088
1379.000000	100.077722
1378.000000	100.077365
1377.000000	100.077419
1376.000000	100.078087
1375.000000	100.078353
1374.000000	100.076241
1373.000000	100.071354
1372.000000	100.065694
1371.000000	100.062148
1370.000000	100.062195
1369.000000	100.066047
1368.000000	100.072129
1367.000000	100.077971
1366.000000	100.082076
1365.000000	100.083890
1364.000000	100.083035
1363.000000	100.079788
1362.000000	100.075784
1361.000000	100.073235
1360.000000	100.072917
1359.000000	100.073691
1358.000000	100.073869
1357.000000	100.073000
1356.000000	100.072024
1355.000000	100.072125
1354.000000	100.073641
1353.000000	100.075891
1352.000000	100.078085
1351.000000	100.079998
1350.000000	100.080940
1349.000000	100.080697
1348.000000	100.079612
1347.000000	100.078216
1346.000000	100.076805
1345.000000	100.075589
1344.000000	100.074618
1343.000000	100.073787
1342.000000	100.073199
1341.000000	100.073599
1340.000000	100.075667
1339.000000	100.078570
1338.000000	100.080431
1337.000000	100.080446
1336.000000	100.079352
1335.000000	100.078125
1334.000000	100.076879
1333.000000	100.075325
1332.000000	100.073811
1331.000000	100.073106
1330.000000	100.073248
1329.000000	100.073568
1328.000000	100.073671
1327.000000	100.073971
1326.000000	100.075139
1325.000000	100.077789
1324.000000	100.081225
1323.000000	100.083399
1322.000000	100.082869
1321.000000	100.080432
1320.000000	100.078329
1319.000000	100.078139
1318.000000	100.079657
1317.000000	100.081207
1316.000000	100.080875
1315.000000	100.078101
1314.000000	100.074730
1313.000000	100.073628
1312.000000	100.075427
1311.000000	100.077467
1310.000000	100.076814
1309.000000	100.073646
1308.000000	100.070808
1307.000000	100.070414
1306.000000	100.071505
1305.000000	100.072097
1304.000000	100.071683
1303.000000	100.071537
1302.000000	100.072964
1301.000000	100.076068
1300.000000	100.080023
1299.000000	100.083883
1298.000000	100.086673
1297.000000	100.087077
1296.000000	100.084180
1295.000000	100.078797
1294.000000	100.073770
1293.000000	100.071884
1292.000000	100.073297
1291.000000	100.075286
1290.000000	100.074507
1289.000000	100.069581
1288.000000	100.062046
1287.000000	100.055179
1286.000000	100.051407
1285.000000	100.050452
1284.000000	100.050089
1283.000000	100.048813
1282.000000	100.047269
1281.000000	100.046946
1280.000000	100.048461
1279.000000	100.051363
1278.000000	100.055161
1277.000000	100.059556
1276.000000	100.064154
1275.000000	100.068563
1274.000000	100.072687
1273.000000	100.076184
1272.000000	100.077902
1271.000000	100.076875
1270.000000	100.074049
1269.000000	100.072114
1268.000000	100.073087
1267.000000	100.076381
1266.000000	100.079600
1265.000000	100.080690
1264.000000	100.079599
1263.000000	100.078282
1262.000000	100.078574
1261.000000	100.079720
1260.000000	100.078995
1259.000000	100.075024
1258.000000	100.069569
1257.000000	100.064598
1256.000000	100.059182
1255.000000	100.051200
1254.000000	100.041040
1253.000000	100.031026
1252.000000	100.021604
1251.000000	100.010808
1250.000000	99.998227
1249.000000	99.986991
1248.000000	99.980085
1247.000000	99.976044
1246.000000	99.970252
1245.000000	99.959848
1244.000000	99.946377
1243.000000	99.933982
1242.000000	99.925541
1241.000000	99.920442
1240.000000	99.915924
1239.000000	99.910294
1238.000000	99.904141
1237.000000	99.898101
1236.000000	99.890575
1235.000000	99.879074
1234.000000	99.863289
1233.000000	99.845231
1232.000000	99.826282
1231.000000	99.805681
1230.000000	99.782336
1229.000000	99.756671
1228.000000	99.730011
1227.000000	99.702928
1226.000000	99.674665
1225.000000	99.643849
1224.000000	99.609426
1223.000000	99.570900
1222.000000	99.527619
1221.000000	99.478212
1220.000000	99.421803
1219.000000	99.360066
1218.000000	99.296880
1217.000000	99.234887
1216.000000	99.173287
1215.000000	99.109951
1214.000000	99.044621
1213.000000	98.978757
1212.000000	98.913083
1211.000000	98.847031
1210.000000	98.780180
1209.000000	98.712666
1208.000000	98.644379
1207.000000	98.575421
1206.000000	98.507603
1205.000000	98.443582
1204.000000	98.383283
1203.000000	98.322466
1202.000000	98.256935
1201.000000	98.187887
1200.000000	98.120828
1199.000000	98.058788
1198.000000	97.999176
1197.000000	97.938367
1196.000000	97.876462
1195.000000	97.815312
1194.000000	97.754272
1193.000000	97.691320
1192.000000	97.626702
1191.000000	97.561797
1190.000000	97.495285
1189.000000	97.424394
1188.000000	97.349798
1187.000000	97.275450
1186.000000	97.203113
1185.000000	97.130622
1184.000000	97.056206
1183.000000	96.980846
1182.000000	96.905354
1181.000000	96.828716
1180.000000	96.750470
1179.000000	96.671221
1178.000000	96.589892
1177.000000	96.504308
1176.000000	96.415697
1175.000000	96.328460
1174.000000	96.243685
1173.000000	96.157094
1172.000000	96.065418
1171.000000	95.970554
1170.000000	95.875170
1169.000000	95.778837
1168.000000	95.682117
1167.000000	95.590877
1166.000000	95.512871
1165.000000	95.452850
1164.000000	95.413939
1163.000000	95.400320
1162.000000	95.414141
1161.000000	95.450430
1160.000000	95.496732
1159.000000	95.537181
1158.000000	95.558208
1157.000000	95.553866
1156.000000	95.526881
1155.000000	95.483316
1154.000000	95.426472
1153.000000	95.357743
1152.000000	95.281609
1151.000000	95.204775
1150.000000	95.129700
1149.000000	95.053724
1148.000000	94.975916
1147.000000	94.900123
1146.000000	94.829438
1145.000000	94.761978
1144.000000	94.694203
1143.000000	94.624381
1142.000000	94.551091
1141.000000	94.472587
1140.000000	94.389792
1139.000000	94.306116
1138.000000	94.222433
1137.000000	94.136108
1136.000000	94.046811
1135.000000	93.958954
1134.000000	93.875697
1133.000000	93.794034
1132.000000	93.708159
1131.000000	93.614866
1130.000000	93.514737
1129.000000	93.411686
1128.000000	93.312371
1127.000000	93.221899
1126.000000	93.138295
1125.000000	93.054250
1124.000000	92.964651
1123.000000	92.869141
1122.000000	92.768814
1121.000000	92.665915
1120.000000	92.565994
1119.000000	92.473655
1118.000000	92.385844
1117.000000	92.295766
1116.000000	92.203296
1115.000000	92.114432
1114.000000	92.030675
1113.000000	91.947178
1112.000000	91.861702
1111.000000	91.776549
1110.000000	91.691002
1109.000000	91.601416
1108.000000	91.510049
1107.000000	91.425121
1106.000000	91.349598
1105.000000	91.278223
1104.000000	91.207248
1103.000000	91.138433
1102.000000	91.071784
1101.000000	91.003556
1100.000000	90.932671
1099.000000	90.862441
1098.000000	90.792364
1097.000000	90.718895
1096.000000	90.644289
1095.000000	90.574801
1094.000000	90.509264
1093.000000	90.440472
1092.000000	90.369426
1091.000000	90.306234
1090.000000	90.254085
1089.000000	90.204107
1088.000000	90.149688
1087.000000	90.094515
1086.000000	90.042493
1085.000000	89.990866
1084.000000	89.937954
1083.000000	89.887298
1082.000000	89.839468
1081.000000	89.789649
1080.000000	89.737778
1079.000000	89.691222
1078.000000	89.652660
1077.000000	89.614516
1076.000000	89.569771
1075.000000	89.519034
1074.000000	89.462730
1073.000000	89.395329
1072.000000	89.311766
1071.000000	89.211670
1070.000000	89.093938
1069.000000	88.955333
1068.000000	88.798505
1067.000000	88.634473
1066.000000	88.473719
1065.000000	88.320380
1064.000000	88.175418
1063.000000	88.037098
1062.000000	87.898829
1061.000000	87.757284
1060.000000	87.622603
1059.000000	87.508315
1058.000000	87.410117
1057.000000	87.307777
1056.000000	87.189734
1055.000000	87.062121
1054.000000	86.931119
1053.000000	86.790657
1052.000000	86.633365
1051.000000	86.460794
1050.000000	86.275980
1049.000000	86.077907
1048.000000	85.869463
1047.000000	85.658480
1046.000000	85.446303
1045.000000	85.227382
1044.000000	85.002515
1043.000000	84.779940
1042.000000	84.561375
1041.000000	84.340409
1040.000000	84.117680
1039.000000	83.903978
1038.000000	83.704938
1037.000000	83.516414
1036.000000	83.338070
1035.000000	83.176891
1034.000000	83.033801
1033.000000	82.901636
1032.000000	82.779790
1031.000000	82.675827
1030.000000	82.589152
1029.000000	82.508614
1028.000000	82.430294
1027.000000	82.362429
1026.000000	82.308558
1025.000000	82.260534
1024.000000	82.211765
1023.000000	82.162781
1022.000000	82.110965
1021.000000	82.050590
1020.000000	81.986590
1019.000000	81.932782
1018.000000	81.892613
1017.000000	81.855912
1016.000000	81.816960
1015.000000	81.780420
1014.000000	81.747319
1013.000000	81.711754
1012.000000	81.674665
1011.000000	81.644729
1010.000000	81.622153
1009.000000	81.597394
1008.000000	81.569307
1007.000000	81.548787
1006.000000	81.540805
1005.000000	81.538253
1004.000000	81.536873
1003.000000	81.540794
1002.000000	81.549900
1001.000000	81.557183
1000.000000	81.562528
999.000000	81.574611
998.000000	81.595903
997.000000	81.619978
996.000000	81.645853
995.000000	81.680001
994.000000	81.721992
993.000000	81.763628
992.000000	81.804966
991.000000	81.855986
990.000000	81.919909
989.000000	81.989997
988.000000	82.064680
987.000000	82.149872
986.000000	82.244141
985.000000	82.338455
984.000000	82.434333
983.000000	82.545970
982.000000	82.679856
981.000000	82.827149
980.000000	82.979969
979.000000	83.140813
978.000000	83.311916
977.000000	83.489824
976.000000	83.675042
975.000000	83.873943
974.000000	84.086923
973.000000	84.306207
972.000000	84.527704
971.000000	84.753161
970.000000	84.979333
969.000000	85.198322
968.000000	85.410738
967.000000	85.625387
966.000000	85.843138
965.000000	86.053539
964.000000	86.250487
963.000000	86.439532
962.000000	86.626841
961.000000	86.812075
960.000000	86.995097
959.000000	87.178721
958.000000	87.361355
957.000000	87.536638
956.000000	87.703069
955.000000	87.865040
954.000000	88.022749
953.000000	88.170513
952.000000	88.306567
951.000000	88.435063
950.000000	88.557021
949.000000	88.668827
948.000000	88.771149
947.000000	88.869869
946.000000	88.966742
945.000000	89.058373
944.000000	89.145317
943.000000	89.231968
942.000000	89.316117
941.000000	89.389424
940.000000	89.450960
939.000000	89.510541
938.000000	89.575711
937.000000	89.644409
936.000000	89.713372
935.000000	89.784418
934.000000	89.859009
933.000000	89.934952
932.000000	90.011707
931.000000	90.091585
930.000000	90.173553
929.000000	90.253152
928.000000	90.329981
927.000000	90.407792
926.000000	90.486399
925.000000	90.561364
924.000000	90.632196
923.000000	90.702302
922.000000	90.770187
921.000000	90.830078
920.000000	90.882853
919.000000	90.937223
918.000000	90.997808
917.000000	91.060395
916.000000	91.121068
915.000000	91.181790
914.000000	91.245051
913.000000	91.311504
912.000000	91.385267
911.000000	91.473251
910.000000	91.576523
909.000000	91.690020
908.000000	91.813207
907.000000	91.952972
906.000000	92.113092
905.000000	92.288180
904.000000	92.470553
903.000000	92.656425
902.000000	92.843193
901.000000	93.027268
900.000000	93.207520
899.000000	93.386736
898.000000	93.568036
897.000000	93.753328
896.000000	93.943813
895.000000	94.137089
894.000000	94.324884
893.000000	94.499015
892.000000	94.658474
891.000000	94.805984
890.000000	94.940541
889.000000	95.060685
888.000000	95.174084
887.000000	95.295370
886.000000	95.431560
885.000000	95.574688
884.000000	95.710989
883.000000	95.833700
882.000000	95.946364
881.000000	96.057309
880.000000	96.171500
879.000000	96.285229
878.000000	96.389403
877.000000	96.480724
876.000000	96.568093
875.000000	96.665118
874.000000	96.778142
873.000000	96.903939
872.000000	97.035067
871.000000	97.163258
870.000000	97.282116
869.000000	97.392544
868.000000	97.503140
867.000000	97.620341
866.000000	97.739658
865.000000	97.850446
864.000000	97.947179
863.000000	98.033025
862.000000	98.116102
861.000000	98.205660
860.000000	98.307073
859.000000	98.414713
858.000000	98.513059
857.000000	98.590932
856.000000	98.652375
855.000000	98.708894
854.000000	98.764567
853.000000	98.815511
852.000000	98.861560
851.000000	98.909771
850.000000	98.964986
849.000000	99.023168
848.000000	99.076003
847.000000	99.117590
846.000000	99.145628
845.000000	99.160373
844.000000	99.164312
843.000000	99.160313
842.000000	99.148368
841.000000	99.125050
840.000000	99.086228
839.000000	99.029886
838.000000	98.958223
837.000000	98.879160
836.000000	98.804435
835.000000	98.743345
834.000000	98.697756
833.000000	98.663538
832.000000	98.635194
831.000000	98.608879
830.000000	98.585635
829.000000	98.574174
828.000000	98.584143
827.000000	98.610663
826.000000	98.631763
825.000000	98.631082
824.000000	98.619243
823.000000	98.621906
822.000000	98.649048
821.000000	98.687049
820.000000	98.718182
819.000000	98.735311
818.000000	98.737653
817.000000	98.722109
816.000000	98.682056
815.000000	98.611128
814.000000	98.507436
813.000000	98.375191
812.000000	98.218996
811.000000	98.032646
810.000000	97.796844
809.000000	97.494716
808.000000	97.129571
807.000000	96.722982
806.000000	96.296379
805.000000	95.860599
804.000000	95.423274
803.000000	94.998147
802.000000	94.604868
801.000000	94.266277
800.000000	94.006227
799.000000	93.840108
798.000000	93.764060
797.000000	93.760515
796.000000	93.813981
795.000000	93.912492
794.000000	94.036766
793.000000	94.162249
792.000000	94.274098
791.000000	94.370171
790.000000	94.448756
789.000000	94.502895
788.000000	94.526493
787.000000	94.515431
786.000000	94.461653
785.000000	94.357220
784.000000	94.208322
783.000000	94.038104
782.000000	93.873127
781.000000	93.732838
780.000000	93.631501
779.000000	93.579630
778.000000	93.580164
777.000000	93.631174
776.000000	93.733307
775.000000	93.885401
774.000000	94.072144
773.000000	94.266683
772.000000	94.448299
771.000000	94.610087
770.000000	94.749539
769.000000	94.861581
768.000000	94.943657
767.000000	95.000174
766.000000	95.039023
765.000000	95.068523
764.000000	95.097530
763.000000	95.131664
762.000000	95.168798
761.000000	95.204985
760.000000	95.244695
759.000000	95.297450
758.000000	95.364221
757.000000	95.435529
756.000000	95.503951
755.000000	95.570331
754.000000	95.636647
753.000000	95.701337
752.000000	95.764204
751.000000	95.828751
750.000000	95.896616
749.000000	95.965195
748.000000	96.032416
747.000000	96.098646
746.000000	96.163812
745.000000	96.229553
744.000000	96.305372
743.000000	96.405184
742.000000	96.534175
741.000000	96.683353
740.000000	96.837972
739.000000	96.986078
738.000000	97.119187
737.000000	97.232860
736.000000	97.330347
735.000000	97.420937
734.000000	97.510924
733.000000	97.597903
732.000000	97.674936
731.000000	97.737474
730.000000	97.784874
729.000000	97.817613
728.000000	97.837740
727.000000	97.850881
726.000000	97.864189
725.000000	97.884353
724.000000	97.916844
723.000000	97.963352
722.000000	98.019843
721.000000	98.080529
720.000000	98.144521
719.000000	98.215437
718.000000	98.293931
717.000000	98.374322
716.000000	98.448321
715.000000	98.510202
714.000000	98.560535
713.000000	98.606662
712.000000	98.656663
711.000000	98.708586
710.000000	98.748825
709.000000	98.766135
708.000000	98.765301
707.000000	98.762019
706.000000	98.761947
705.000000	98.752971
704.000000	98.719458
703.000000	98.653235
702.000000	98.550440
701.000000	98.406144
700.000000	98.216720
699.000000	97.988924
698.000000	97.743225
697.000000	97.512198
696.000000	97.334588
695.000000	97.239152
694.000000	97.233293
693.000000	97.304855
692.000000	97.429534
691.000000	97.578923
690.000000	97.725343
689.000000	97.851303
688.000000	97.957352
687.000000	98.053430
686.000000	98.143929
685.000000	98.222697
684.000000	98.281473
683.000000	98.321937
682.000000	98.356152
681.000000	98.395201
680.000000	98.438810
679.000000	98.480159
678.000000	98.519405
677.000000	98.560818
676.000000	98.604389
675.000000	98.650538
674.000000	98.701363
673.000000	98.756303
672.000000	98.813913
671.000000	98.876967
670.000000	98.955382
669.000000	99.051510
668.000000	99.122598
667.000000	99.137920
666.000000	99.139514
665.000000	99.135178
664.000000	99.124204
663.000000	99.125512
662.000000	99.148992
661.000000	99.174443
660.000000	99.179189
659.000000	99.168158
658.000000	99.159224
657.000000	99.149615
656.000000	99.124150
655.000000	99.084775
654.000000	99.040845
653.000000	98.992463
652.000000	98.945810
651.000000	98.918907
650.000000	98.917877
649.000000	98.930176
648.000000	98.954562
647.000000	99.005985
646.000000	99.078860
645.000000	99.142554
644.000000	99.181171
643.000000	99.206802
642.000000	99.232331
641.000000	99.260974
640.000000	99.307223
639.000000	99.388876
638.000000	99.484231
637.000000	99.540570
636.000000	99.541758
635.000000	99.527414
634.000000	99.536698
633.000000	99.569533
632.000000	99.616991
631.000000	99.686731
630.000000	99.775295
629.000000	99.851920
628.000000	99.895402
627.000000	99.919264
626.000000	99.941312
625.000000	99.957472
624.000000	99.966927
623.000000	99.994327
622.000000	100.055453
621.000000	100.120889
620.000000	100.145456
619.000000	100.120845
618.000000	100.079886
617.000000	100.059359
616.000000	100.076935
615.000000	100.127308
614.000000	100.179534
613.000000	100.195591
612.000000	100.164123
611.000000	100.107538
610.000000	100.051434
609.000000	99.999513
608.000000	99.949009
607.000000	99.908821
606.000000	99.882426
605.000000	99.848862
604.000000	99.777628
603.000000	99.659210
602.000000	99.521629
601.000000	99.423326
600.000000	99.422350
599.000000	99.528329
598.000000	99.679924
597.000000	99.794160
596.000000	99.835823
595.000000	99.816861
594.000000	99.754944
593.000000	99.673118
592.000000	99.625882
591.000000	99.666908
590.000000	99.776187
589.000000	99.873342
588.000000	99.917645
587.000000	99.942050
586.000000	99.981580
585.000000	100.019780
584.000000	100.033208
583.000000	100.039155
582.000000	100.064200
581.000000	100.100933
580.000000	100.129366
579.000000	100.144048
578.000000	100.134268
577.000000	100.082373
576.000000	100.014402
575.000000	100.010087
574.000000	100.114245
573.000000	100.274177
572.000000	100.402615
571.000000	100.456263
570.000000	100.442298
569.000000	100.392877
568.000000	100.348167
567.000000	100.333326
566.000000	100.326963
565.000000	100.284458
564.000000	100.202278
563.000000	100.122105
562.000000	100.072290
561.000000	100.047520
560.000000	100.048985
559.000000	100.076408
558.000000	100.075787
557.000000	99.982947
556.000000	99.836987
555.000000	99.767097
554.000000	99.828279
553.000000	99.935300
552.000000	99.984206
551.000000	99.968412
550.000000	99.939868
